Time(s)  Voltage(mV)
0  0
0.0025  0
0.005  6
0.0075  0
0.01  0
0.0125  0
0.015  10
0.0175  2
0.02  0
0.0225  0
0.025  0
0.0275  10
0.03  10
0.0325  6
0.035  2
0.0375  0
0.04  0
0.0425  0
0.045  0
0.0475  6
0.05  6
0.0525  0
0.055  2
0.0575  0
0.06  0
0.0625  0
0.065  2
0.0675  0
0.07  0
0.0725  2
0.075  10
0.0775  0
0.08  0
0.0825  0
0.085  0
0.0875  2
0.09  2
0.0925  0
0.095  0
0.0975  2
0.1  0
0.1025  0
0.105  0
0.1075  0
0.11  14
0.1125  10
0.115  6
0.1175  0
0.12  2
0.1225  0
0.125  2
0.1275  0
0.13  18
0.1325  2
0.135  10
0.1375  2
0.14  0
0.1425  2
0.145  0
0.1475  10
0.15  2
0.1525  2
0.155  2
0.1575  6
0.16  2
0.1625  0
0.165  0
0.1675  6
0.17  2
0.1725  6
0.175  2
0.1775  0
0.18  0
0.1825  0
0.185  2
0.1875  2
0.19  2
0.1925  10
0.195  0
0.1975  0
0.2  6
0.2025  0
0.205  0
0.2075  0
0.21  6
0.2125  6
0.215  0
0.2175  10
0.22  0
0.2225  0
0.225  0
0.2275  6
0.23  10
0.2325  0
0.235  6
0.2375  0
0.24  2
0.2425  0
0.245  6
0.2475  2
0.25  0
0.2525  2
0.255  6
0.2575  6
0.26  2
0.2625  2
0.265  0
0.2675  2
0.27  2
0.2725  2
0.275  2
0.2775  0
0.28  0
0.2825  2
0.285  2
0.2875  6
0.29  2
0.2925  2
0.295  0
0.2975  0
0.3  14
0.3025  0
0.305  0
0.3075  6
0.31  0
0.3125  0
0.315  10
0.3175  0
0.32  6
0.3225  2
0.325  2
0.3275  0
0.33  6
0.3325  2
0.335  10
0.3375  0
0.34  0
0.3425  2
0.345  6
0.3475  2
0.35  6
0.3525  2
0.355  10
0.3575  2
0.36  2
0.3625  0
0.365  2
0.3675  0
0.37  0
0.3725  0
0.375  6
0.3775  0
0.38  0
0.3825  0
0.385  2
0.3875  6
0.39  0
0.3925  10
0.395  0
0.3975  2
0.4  6
0.4025  0
0.405  0
0.4075  0
0.41  14
0.4125  0
0.415  2
0.4175  6
0.42  2
0.4225  6
0.425  2
0.4275  2
0.43  10
0.4325  0
0.435  0
0.4375  0
0.44  0
0.4425  2
0.445  0
0.4475  0
0.45  0
0.4525  0
0.455  6
0.4575  6
0.46  2
0.4625  2
0.465  0
0.4675  6
0.47  0
0.4725  10
0.475  10
0.4775  14
0.48  0
0.4825  0
0.485  0
0.4875  2
0.49  0
0.4925  2
0.495  10
0.4975  6
0.5  0
0.5025  2
0.505  0
0.5075  6
0.51  0
0.5125  14
0.515  2
0.5175  6
0.52  6
0.5225  2
0.525  0
0.5275  0
0.53  2
0.5325  6
0.535  2
0.5375  6
0.54  0
0.5425  2
0.545  0
0.5475  2
0.55  6
0.5525  6
0.555  10
0.5575  0
0.56  2
0.5625  0
0.565  2
0.5675  2
0.57  0
0.5725  10
0.575  0
0.5775  10
0.58  6
0.5825  6
0.585  2
0.5875  0
0.59  2
0.5925  0
0.595  0
0.5975  6
0.6  0
0.6025  2
0.605  0
0.6075  0
0.61  6
0.6125  6
0.615  10
0.6175  2
0.62  2
0.6225  0
0.625  0
0.6275  0
0.63  10
0.6325  6
0.635  2
0.6375  6
0.64  0
0.6425  0
0.645  0
0.6475  0
0.65  0
0.6525  0
0.655  0
0.6575  0
0.66  0
0.6625  0
0.665  0
0.6675  0
0.67  0
0.6725  0
0.675  0
0.6775  0
0.68  0
0.6825  0
0.685  0
0.6875  0
0.69  0
0.6925  0
0.695  0
0.6975  0
0.7  0
0.7025  0
0.705  0
0.7075  0
0.71  0
0.7125  0
0.715  0
0.7175  0
0.72  0
0.7225  0
0.725  0
0.7275  0
0.73  0
0.7325  0
0.735  0
0.7375  0
0.74  0
0.7425  0
0.745  0
0.7475  0
0.75  0
0.7525  0
0.755  0
0.7575  0
0.76  0
0.7625  0
0.765  0
0.7675  0
0.77  0
0.7725  0
0.775  0
0.7775  0
0.78  0
0.7825  0
0.785  0
0.7875  0
0.79  0
0.7925  0
0.795  0
0.7975  0
0.8  0
0.8025  0
0.805  0
0.8075  0
0.81  0
0.8125  0
0.815  0
0.8175  0
0.82  0
0.8225  0
0.825  0
0.8275  0
0.83  0
0.8325  0
0.835  0
0.8375  0
0.84  0
0.8425  0
0.845  0
0.8475  0
0.85  0
0.8525  0
0.855  0
0.8575  0
0.86  0
0.8625  0
0.865  0
0.8675  0
0.87  0
0.8725  0
0.875  0
0.8775  0
0.88  0
0.8825  0
0.885  0
0.8875  0
0.89  0
0.8925  0
0.895  0
0.8975  0
0.9  0
0.9025  0
0.905  0
0.9075  0
0.91  0
0.9125  0
0.915  0
0.9175  0
0.92  0
0.9225  0
0.925  0
0.9275  0
0.93  0
0.9325  0
0.935  0
0.9375  0
0.94  0
0.9425  0
0.945  0
0.9475  0
0.95  0
0.9525  0
0.955  0
0.9575  0
0.96  0
0.9625  0
0.965  0
0.9675  0
0.97  0
0.9725  0
0.975  0
0.9775  0
0.98  0
0.9825  0
0.985  0
0.9875  0
0.99  0
0.9925  0
0.995  0
0.9975  0
1  0
1.0025  0
1.005  0
1.0075  0
1.01  0
1.0125  0
1.015  0
1.0175  0
1.02  0
1.0225  0
1.025  0
1.0275  0
1.03  0
1.0325  0
1.035  0
1.0375  0
1.04  0
1.0425  0
1.045  0
1.0475  0
1.05  0
1.0525  0
1.055  0
1.0575  0
1.06  0
1.0625  0
1.065  0
1.0675  0
1.07  0
1.0725  0
1.075  0
1.0775  0
1.08  0
1.0825  0
1.085  0
1.0875  0
1.09  0
1.0925  0
1.095  0
1.0975  0
1.1  0
1.1025  0
1.105  0
1.1075  0
1.11  0
1.1125  0
1.115  0
1.1175  0
1.12  0
1.1225  0
1.125  0
1.1275  0
1.13  0
1.1325  0
1.135  0
1.1375  0
1.14  0
1.1425  0
1.145  0
1.1475  0
1.15  0
1.1525  0
1.155  0
1.1575  0
1.16  0
1.1625  0
1.165  0
1.1675  0
1.17  0
1.1725  0
1.175  0
1.1775  0
1.18  0
1.1825  0
1.185  0
1.1875  0
1.19  0
1.1925  0
1.195  0
1.1975  0
1.2  0
1.2025  0
1.205  0
1.2075  0
1.21  0
1.2125  0
1.215  0
1.2175  0
1.22  0
1.2225  0
1.225  0
1.2275  0
1.23  0
1.2325  0
1.235  0
1.2375  0
1.24  0
1.2425  0
1.245  0
1.2475  0
1.25  0
1.2525  0
1.255  0
1.2575  0
1.26  0
1.2625  0
1.265  0
1.2675  0
1.27  0
1.2725  0
1.275  0
1.2775  0
1.28  6
1.2825  0
1.285  0
1.2875  2
1.29  6
1.2925  0
1.295  0
1.2975  2
1.3  0
1.3025  0
1.305  10
1.3075  2
1.31  2
1.3125  0
1.315  0
1.3175  0
1.32  0
1.3225  0
1.325  6
1.3275  2
1.33  2
1.3325  6
1.335  2
1.3375  2
1.34  0
1.3425  0
1.345  2
1.3475  0
1.35  0
1.3525  2
1.355  10
1.3575  0
1.36  2
1.3625  2
1.365  10
1.3675  2
1.37  2
1.3725  0
1.375  2
1.3775  2
1.38  0
1.3825  2
1.385  0
1.3875  0
1.39  0
1.3925  0
1.395  0
1.3975  6
1.4  2
1.4025  2
1.405  6
1.4075  0
1.41  6
1.4125  2
1.415  0
1.4175  6
1.42  0
1.4225  0
1.425  0
1.4275  6
1.43  0
1.4325  0
1.435  6
1.4375  0
1.44  0
1.4425  0
1.445  2
1.4475  0
1.45  2
1.4525  6
1.455  6
1.4575  2
1.46  0
1.4625  2
1.465  10
1.4675  2
1.47  0
1.4725  0
1.475  0
1.4775  10
1.48  0
1.4825  0
1.485  6
1.4875  0
1.49  6
1.4925  0
1.495  6
1.4975  2
1.5  0
1.5025  2
1.505  2
1.5075  10
1.51  0
1.5125  2
1.515  0
1.5175  2
1.52  0
1.5225  0
1.525  0
1.5275  0
1.53  0
1.5325  0
1.535  0
1.5375  0
1.54  14
1.5425  6
1.545  0
1.5475  2
1.55  0
1.5525  6
1.555  0
1.5575  0
1.56  6
1.5625  0
1.565  2
1.5675  0
1.57  0
1.5725  0
1.575  0
1.5775  2
1.58  2
1.5825  2
1.585  0
1.5875  2
1.59  0
1.5925  0
1.595  0
1.5975  0
1.6  2
1.6025  2
1.605  18
1.6075  0
1.61  2
1.6125  0
1.615  0
1.6175  0
1.62  0
1.6225  2
1.625  0
1.6275  0
1.63  0
1.6325  0
1.635  0
1.6375  0
1.64  6
1.6425  0
1.645  0
1.6475  6
1.65  6
1.6525  0
1.655  2
1.6575  6
1.66  2
1.6625  0
1.665  0
1.6675  0
1.67  2
1.6725  2
1.675  0
1.6775  0
1.68  0
1.6825  0
1.685  0
1.6875  2
1.69  6
1.6925  10
1.695  0
1.6975  2
1.7  0
1.7025  2
1.705  0
1.7075  0
1.71  0
1.7125  10
1.715  2
1.7175  0
1.72  0
1.7225  0
1.725  10
1.7275  0
1.73  0
1.7325  10
1.735  0
1.7375  6
1.74  0
1.7425  0
1.745  2
1.7475  0
1.75  2
1.7525  2
1.755  2
1.7575  0
1.76  0
1.7625  10
1.765  2
1.7675  0
1.77  0
1.7725  0
1.775  0
1.7775  0
1.78  0
1.7825  0
1.785  0
1.7875  0
1.79  0
1.7925  2
1.795  2
1.7975  0
1.8  0
1.8025  2
1.805  2
1.8075  2
1.81  0
1.8125  6
1.815  0
1.8175  2
1.82  6
1.8225  0
1.825  0
1.8275  0
1.83  0
1.8325  6
1.835  0
1.8375  0
1.84  0
1.8425  0
1.845  6
1.8475  2
1.85  0
1.8525  2
1.855  0
1.8575  2
1.86  0
1.8625  6
1.865  2
1.8675  0
1.87  2
1.8725  0
1.875  2
1.8775  6
1.88  6
1.8825  0
1.885  6
1.8875  6
1.89  0
1.8925  2
1.895  0
1.8975  2
1.9  0
1.9025  0
1.905  0
1.9075  0
1.91  0
1.9125  2
1.915  0
1.9175  0
1.92  0
1.9225  0
1.925  0
1.9275  0
1.93  0
1.9325  0
1.935  0
1.9375  0
1.94  0
1.9425  0
1.945  0
1.9475  0
1.95  0
1.9525  0
1.955  0
1.9575  0
1.96  0
1.9625  0
1.965  0
1.9675  0
1.97  0
1.9725  0
1.975  0
1.9775  0
1.98  0
1.9825  0
1.985  0
1.9875  0
1.99  0
1.9925  0
1.995  0
1.9975  0
2  0
2.0025  0
2.005  0
2.0075  0
2.01  0
2.0125  0
2.015  0
2.0175  0
2.02  0
2.0225  0
2.025  0
2.0275  0
2.03  0
2.0325  0
2.035  0
2.0375  0
2.04  0
2.0425  0
2.045  0
2.0475  0
2.05  0
2.0525  0
2.055  0
2.0575  0
2.06  0
2.0625  0
2.065  0
2.0675  0
2.07  0
2.0725  0
2.075  0
2.0775  0
2.08  0
2.0825  0
2.085  0
2.0875  0
2.09  0
2.0925  0
2.095  0
2.0975  0
2.1  0
2.1025  0
2.105  0
2.1075  0
2.11  0
2.1125  0
2.115  0
2.1175  0
2.12  0
2.1225  0
2.125  0
2.1275  0
2.13  0
2.1325  0
2.135  0
2.1375  0
2.14  0
2.1425  0
2.145  0
2.1475  0
2.15  0
2.1525  0
2.155  0
2.1575  0
2.16  0
2.1625  0
2.165  0
2.1675  0
2.17  0
2.1725  0
2.175  0
2.1775  0
2.18  0
2.1825  0
2.185  0
2.1875  0
2.19  0
2.1925  0
2.195  0
2.1975  0
2.2  0
2.2025  0
2.205  0
2.2075  0
2.21  0
2.2125  0
2.215  0
2.2175  0
2.22  0
2.2225  0
2.225  0
2.2275  0
2.23  0
2.2325  0
2.235  0
2.2375  0
2.24  0
2.2425  0
2.245  0
2.2475  0
2.25  0
2.2525  0
2.255  0
2.2575  0
2.26  0
2.2625  0
2.265  0
2.2675  0
2.27  0
2.2725  0
2.275  0
2.2775  0
2.28  0
2.2825  0
2.285  0
2.2875  0
2.29  0
2.2925  0
2.295  0
2.2975  0
2.3  0
2.3025  0
2.305  0
2.3075  0
2.31  0
2.3125  0
2.315  0
2.3175  0
2.32  0
2.3225  0
2.325  0
2.3275  0
2.33  0
2.3325  0
2.335  0
2.3375  0
2.34  0
2.3425  0
2.345  0
2.3475  0
2.35  0
2.3525  0
2.355  0
2.3575  0
2.36  0
2.3625  0
2.365  0
2.3675  0
2.37  0
2.3725  0
2.375  0
2.3775  0
2.38  0
2.3825  0
2.385  0
2.3875  0
2.39  0
2.3925  0
2.395  0
2.3975  0
2.4  0
2.4025  0
2.405  0
2.4075  0
2.41  0
2.4125  0
2.415  0
2.4175  0
2.42  0
2.4225  0
2.425  0
2.4275  0
2.43  0
2.4325  0
2.435  0
2.4375  0
2.44  0
2.4425  0
2.445  0
2.4475  0
2.45  0
2.4525  0
2.455  0
2.4575  0
2.46  0
2.4625  0
2.465  0
2.4675  0
2.47  0
2.4725  0
2.475  0
2.4775  0
2.48  0
2.4825  0
2.485  0
2.4875  0
2.49  0
2.4925  0
2.495  0
2.4975  0
2.5  0
2.5025  0
2.505  0
2.5075  0
2.51  0
2.5125  0
2.515  0
2.5175  0
2.52  0
2.5225  0
2.525  0
2.5275  0
2.53  0
2.5325  0
2.535  0
2.5375  0
2.54  0
2.5425  0
2.545  0
2.5475  0
2.55  0
2.5525  0
2.555  0
2.5575  0
2.56  0
2.5625  0
2.565  0
2.5675  2
2.57  0
2.5725  0
2.575  2
2.5775  14
2.58  2
2.5825  0
2.585  0
2.5875  14
2.59  0
2.5925  6
2.595  0
2.5975  0
2.6  0
2.6025  10
2.605  2
2.6075  0
2.61  2
2.6125  0
2.615  0
2.6175  6
2.62  0
2.6225  0
2.625  0
2.6275  2
2.63  6
2.6325  2
2.635  0
2.6375  2
2.64  6
2.6425  0
2.645  10
2.6475  2
2.65  0
2.6525  6
2.655  6
2.6575  2
2.66  0
2.6625  2
2.665  10
2.6675  2
2.67  0
2.6725  0
2.675  6
2.6775  0
2.68  10
2.6825  6
2.685  0
2.6875  0
2.69  0
2.6925  2
2.695  2
2.6975  2
2.7  0
2.7025  0
2.705  0
2.7075  0
2.71  2
2.7125  0
2.715  2
2.7175  0
2.72  0
2.7225  6
2.725  0
2.7275  0
2.73  0
2.7325  2
2.735  0
2.7375  0
2.74  0
2.7425  0
2.745  0
2.7475  2
2.75  0
2.7525  0
2.755  2
2.7575  6
2.76  0
2.7625  0
2.765  0
2.7675  2
2.77  2
2.7725  0
2.775  0
2.7775  6
2.78  0
2.7825  10
2.785  2
2.7875  6
2.79  6
2.7925  2
2.795  2
2.7975  0
2.8  10
2.8025  2
2.805  0
2.8075  0
2.81  10
2.8125  2
2.815  6
2.8175  0
2.82  6
2.8225  2
2.825  2
2.8275  0
2.83  0
2.8325  0
2.835  10
2.8375  2
2.84  2
2.8425  10
2.845  2
2.8475  2
2.85  0
2.8525  0
2.855  0
2.8575  6
2.86  6
2.8625  2
2.865  0
2.8675  2
2.87  2
2.8725  0
2.875  10
2.8775  2
2.88  2
2.8825  0
2.885  6
2.8875  6
2.89  0
2.8925  0
2.895  2
2.8975  2
2.9  0
2.9025  2
2.905  0
2.9075  14
2.91  2
2.9125  6
2.915  0
2.9175  0
2.92  2
2.9225  0
2.925  0
2.9275  0
2.93  0
2.9325  0
2.935  0
2.9375  0
2.94  2
2.9425  0
2.945  0
2.9475  2
2.95  10
2.9525  10
2.955  2
2.9575  0
2.96  0
2.9625  0
2.965  2
2.9675  2
2.97  0
2.9725  2
2.975  6
2.9775  2
2.98  6
2.9825  0
2.985  0
2.9875  6
2.99  0
2.9925  2
2.995  0
2.9975  0
3  0
3.0025  2
3.005  2
3.0075  0
3.01  0
3.0125  2
3.015  0
3.0175  6
3.02  0
3.0225  0
3.025  0
3.0275  2
3.03  0
3.0325  6
3.035  0
3.0375  2
3.04  0
3.0425  0
3.045  2
3.0475  0
3.05  0
3.0525  6
3.055  0
3.0575  0
3.06  0
3.0625  6
3.065  0
3.0675  0
3.07  2
3.0725  0
3.075  0
3.0775  0
3.08  6
3.0825  2
3.085  6
3.0875  0
3.09  10
3.0925  0
3.095  0
3.0975  0
3.1  2
3.1025  2
3.105  0
3.1075  0
3.11  0
3.1125  0
3.115  10
3.1175  0
3.12  2
3.1225  2
3.125  0
3.1275  0
3.13  2
3.1325  0
3.135  2
3.1375  0
3.14  2
3.1425  0
3.145  2
3.1475  0
3.15  0
3.1525  0
3.155  6
3.1575  0
3.16  2
3.1625  2
3.165  0
3.1675  0
3.17  0
3.1725  6
3.175  0
3.1775  0
3.18  2
3.1825  6
3.185  0
3.1875  0
3.19  0
3.1925  6
3.195  0
3.1975  2
3.2  0
3.2025  0
3.205  0
3.2075  0
3.21  0
3.2125  0
3.215  0
3.2175  0
3.22  0
3.2225  0
3.225  0
3.2275  0
3.23  0
3.2325  0
3.235  0
3.2375  0
3.24  0
3.2425  0
3.245  0
3.2475  0
3.25  0
3.2525  0
3.255  0
3.2575  0
3.26  0
3.2625  0
3.265  0
3.2675  0
3.27  0
3.2725  0
3.275  0
3.2775  0
3.28  0
3.2825  0
3.285  0
3.2875  0
3.29  0
3.2925  0
3.295  0
3.2975  0
3.3  0
3.3025  0
3.305  0
3.3075  0
3.31  0
3.3125  0
3.315  0
3.3175  0
3.32  0
3.3225  0
3.325  0
3.3275  0
3.33  0
3.3325  0
3.335  0
3.3375  0
3.34  0
3.3425  0
3.345  0
3.3475  0
3.35  0
3.3525  0
3.355  0
3.3575  0
3.36  0
3.3625  0
3.365  0
3.3675  0
3.37  0
3.3725  0
3.375  0
3.3775  0
3.38  0
3.3825  0
3.385  0
3.3875  0
3.39  0
3.3925  0
3.395  0
3.3975  0
3.4  0
3.4025  0
3.405  0
3.4075  0
3.41  0
3.4125  0
3.415  0
3.4175  0
3.42  0
3.4225  0
3.425  0
3.4275  0
3.43  0
3.4325  0
3.435  0
3.4375  0
3.44  0
3.4425  0
3.445  0
3.4475  0
3.45  0
3.4525  0
3.455  0
3.4575  0
3.46  0
3.4625  0
3.465  0
3.4675  0
3.47  0
3.4725  0
3.475  0
3.4775  0
3.48  0
3.4825  0
3.485  0
3.4875  0
3.49  0
3.4925  0
3.495  0
3.4975  0
3.5  0
3.5025  0
3.505  0
3.5075  0
3.51  0
3.5125  0
3.515  0
3.5175  0
3.52  0
3.5225  0
3.525  0
3.5275  0
3.53  0
3.5325  0
3.535  0
3.5375  0
3.54  0
3.5425  0
3.545  0
3.5475  0
3.55  0
3.5525  0
3.555  0
3.5575  0
3.56  0
3.5625  0
3.565  0
3.5675  0
3.57  0
3.5725  0
3.575  0
3.5775  0
3.58  0
3.5825  0
3.585  0
3.5875  0
3.59  0
3.5925  0
3.595  0
3.5975  0
3.6  0
3.6025  0
3.605  0
3.6075  0
3.61  0
3.6125  0
3.615  0
3.6175  0
3.62  0
3.6225  0
3.625  0
3.6275  0
3.63  0
3.6325  0
3.635  0
3.6375  0
3.64  0
3.6425  0
3.645  0
3.6475  0
3.65  0
3.6525  0
3.655  0
3.6575  0
3.66  0
3.6625  0
3.665  0
3.6675  0
3.67  0
3.6725  0
3.675  0
3.6775  0
3.68  0
3.6825  0
3.685  0
3.6875  0
3.69  0
3.6925  0
3.695  0
3.6975  0
3.7  0
3.7025  0
3.705  0
3.7075  0
3.71  0
3.7125  0
3.715  0
3.7175  0
3.72  0
3.7225  0
3.725  0
3.7275  0
3.73  0
3.7325  0
3.735  0
3.7375  0
3.74  0
3.7425  0
3.745  0
3.7475  0
3.75  0
3.7525  0
3.755  0
3.7575  0
3.76  0
3.7625  0
3.765  0
3.7675  0
3.77  0
3.7725  0
3.775  0
3.7775  0
3.78  0
3.7825  0
3.785  0
3.7875  0
3.79  0
3.7925  0
3.795  0
3.7975  0
3.8  0
3.8025  0
3.805  0
3.8075  0
3.81  0
3.8125  0
3.815  0
3.8175  0
3.82  0
3.8225  0
3.825  0
3.8275  0
3.83  0
3.8325  0
3.835  0
3.8375  0
3.84  0
3.8425  0
3.845  0
3.8475  0
3.85  0
3.8525  0
3.855  0
3.8575  0
3.86  2
3.8625  0
3.865  0
3.8675  0
3.87  10
3.8725  0
3.875  6
3.8775  2
3.88  0
3.8825  0
3.885  6
3.8875  0
3.89  2
3.8925  0
3.895  6
3.8975  6
3.9  2
3.9025  10
3.905  0
3.9075  2
3.91  0
3.9125  0
3.915  0
3.9175  0
3.92  0
3.9225  6
3.925  0
3.9275  2
3.93  0
3.9325  6
3.935  6
3.9375  2
3.94  6
3.9425  6
3.945  0
3.9475  2
3.95  0
3.9525  0
3.955  0
3.9575  2
3.96  0
3.9625  818
3.965  1274
3.9675  1278
3.97  1282
3.9725  1282
3.975  1274
3.9775  1286
3.98  1286
3.9825  1286
3.985  1274
3.9875  1278
3.99  1282
3.9925  1282
3.995  1278
3.9975  1278
4  1282
4.0025  1278
4.005  1282
4.0075  1278
4.01  1282
4.0125  1267
4.015  1282
4.0175  1274
4.02  1271
4.0225  1282
4.025  1286
4.0275  1278
4.03  1282
4.0325  1271
4.035  1282
4.0375  1278
4.04  1282
4.0425  1278
4.045  1278
4.0475  1282
4.05  1278
4.0525  1286
4.055  1282
4.0575  1286
4.06  1278
4.0625  1282
4.065  1278
4.0675  1267
4.07  1267
4.0725  1274
4.075  1278
4.0775  1286
4.08  1278
4.0825  1286
4.085  1282
4.0875  1282
4.09  1282
4.0925  1286
4.095  1290
4.0975  1278
4.1  1267
4.1025  1271
4.105  1286
4.1075  1282
4.11  1286
4.1125  1286
4.115  1267
4.1175  1282
4.12  1286
4.1225  1278
4.125  1286
4.1275  1286
4.13  1278
4.1325  1282
4.135  1271
4.1375  1274
4.14  1286
4.1425  1286
4.145  1278
4.1475  1282
4.15  1278
4.1525  1282
4.155  1274
4.1575  1278
4.16  1278
4.1625  1274
4.165  1278
4.1675  1278
4.17  1282
4.1725  1271
4.175  1286
4.1775  1282
4.18  1271
4.1825  1282
4.185  1278
4.1875  1282
4.19  1286
4.1925  1282
4.195  1282
4.1975  1274
4.2  1290
4.2025  1278
4.205  1278
4.2075  1274
4.21  1278
4.2125  1278
4.215  1278
4.2175  1294
4.22  1282
4.2225  1282
4.225  1286
4.2275  1286
4.23  1286
4.2325  1286
4.235  1274
4.2375  1290
4.24  1282
4.2425  1278
4.245  1282
4.2475  1282
4.25  1274
4.2525  1278
4.255  1286
4.2575  1286
4.26  1290
4.2625  1294
4.265  1278
4.2675  1286
4.27  1286
4.2725  1278
4.275  1271
4.2775  1282
4.28  1290
4.2825  1274
4.285  1290
4.2875  1278
4.29  1278
4.2925  1282
4.295  1282
4.2975  1286
4.3  1271
4.3025  1278
4.305  1282
4.3075  1286
4.31  1278
4.3125  1282
4.315  1282
4.3175  1274
4.32  1286
4.3225  1274
4.325  1282
4.3275  1286
4.33  1278
4.3325  1278
4.335  1290
4.3375  1278
4.34  1271
4.3425  1278
4.345  1274
4.3475  1286
4.35  1278
4.3525  1278
4.355  1290
4.3575  1274
4.36  1282
4.3625  1282
4.365  1286
4.3675  1274
4.37  1282
4.3725  1286
4.375  1282
4.3775  1278
4.38  1282
4.3825  1278
4.385  1290
4.3875  1274
4.39  1271
4.3925  1282
4.395  1286
4.3975  1274
4.4  1282
4.4025  1271
4.405  1271
4.4075  1278
4.41  1282
4.4125  1278
4.415  1282
4.4175  1286
4.42  1286
4.4225  1278
4.425  1271
4.4275  1274
4.43  1274
4.4325  1271
4.435  1278
4.4375  1278
4.44  1274
4.4425  1274
4.445  1286
4.4475  1278
4.45  1271
4.4525  1282
4.455  1278
4.4575  1294
4.46  1282
4.4625  1286
4.465  1278
4.4675  1282
4.47  1286
4.4725  1278
4.475  1286
4.4775  1278
4.48  0
4.4825  0
4.485  0
4.4875  0
4.49  0
4.4925  0
4.495  0
4.4975  0
4.5  0
4.5025  0
4.505  0
4.5075  0
4.51  0
4.5125  0
4.515  0
4.5175  0
4.52  0
4.5225  0
4.525  0
4.5275  0
4.53  0
4.5325  0
4.535  0
4.5375  0
4.54  0
4.5425  0
4.545  0
4.5475  0
4.55  0
4.5525  0
4.555  0
4.5575  0
4.56  0
4.5625  0
4.565  0
4.5675  0
4.57  0
4.5725  0
4.575  0
4.5775  0
4.58  0
4.5825  0
4.585  0
4.5875  0
4.59  0
4.5925  0
4.595  0
4.5975  0
4.6  0
4.6025  0
4.605  0
4.6075  0
4.61  0
4.6125  0
4.615  0
4.6175  0
4.62  0
4.6225  0
4.625  0
4.6275  0
4.63  0
4.6325  0
4.635  0
4.6375  0
4.64  0
4.6425  0
4.645  0
4.6475  0
4.65  0
4.6525  0
4.655  0
4.6575  0
4.66  0
4.6625  0
4.665  0
4.6675  0
4.67  0
4.6725  0
4.675  0
4.6775  0
4.68  0
4.6825  0
4.685  0
4.6875  0
4.69  0
4.6925  0
4.695  0
4.6975  0
4.7  0
4.7025  0
4.705  0
4.7075  0
4.71  0
4.7125  0
4.715  0
4.7175  0
4.72  0
4.7225  0
4.725  0
4.7275  0
4.73  0
4.7325  0
4.735  0
4.7375  0
4.74  0
4.7425  0
4.745  0
4.7475  0
4.75  0
4.7525  0
4.755  0
4.7575  0
4.76  0
4.7625  0
4.765  0
4.7675  0
4.77  0
4.7725  0
4.775  0
4.7775  0
4.78  0
4.7825  0
4.785  0
4.7875  0
4.79  0
4.7925  0
4.795  0
4.7975  0
4.8  0
4.8025  0
4.805  0
4.8075  0
4.81  0
4.8125  0
4.815  0
4.8175  0
4.82  0
4.8225  0
4.825  0
4.8275  0
4.83  0
4.8325  0
4.835  0
4.8375  0
4.84  0
4.8425  0
4.845  0
4.8475  0
4.85  0
4.8525  0
4.855  0
4.8575  0
4.86  0
4.8625  0
4.865  0
4.8675  0
4.87  0
4.8725  0
4.875  0
4.8775  0
4.88  0
4.8825  0
4.885  0
4.8875  0
4.89  0
4.8925  0
4.895  0
4.8975  0
4.9  0
4.9025  0
4.905  0
4.9075  0
4.91  0
4.9125  0
4.915  0
4.9175  0
4.92  0
4.9225  0
4.925  0
4.9275  0
4.93  0
4.9325  0
4.935  0
4.9375  0
4.94  0
4.9425  0
4.945  0
4.9475  0
4.95  0
4.9525  0
4.955  0
4.9575  0
4.96  0
4.9625  0
4.965  0
4.9675  0
4.97  0
4.9725  0
4.975  0
4.9775  0
4.98  0
4.9825  0
4.985  0
4.9875  0
4.99  0
4.9925  0
4.995  0
4.9975  0
5  0
5.0025  0
5.005  0
5.0075  0
5.01  0
5.0125  0
5.015  0
5.0175  0
5.02  0
5.0225  0
5.025  0
5.0275  0
5.03  0
5.0325  0
5.035  0
5.0375  0
5.04  0
5.0425  0
5.045  0
5.0475  0
5.05  0
5.0525  0
5.055  0
5.0575  0
5.06  0
5.0625  0
5.065  0
5.0675  0
5.07  0
5.0725  0
5.075  0
5.0775  0
5.08  0
5.0825  0
5.085  0
5.0875  0
5.09  0
5.0925  0
5.095  0
5.0975  0
5.1  0
5.1025  0
5.105  0
5.1075  0
5.11  0
5.1125  0
5.115  0
5.1175  0
5.12  1274
5.1225  1278
5.125  1286
5.1275  1274
5.13  1274
5.1325  1278
5.135  1278
5.1375  1282
5.14  1274
5.1425  1286
5.145  1278
5.1475  1271
5.15  1282
5.1525  1278
5.155  1290
5.1575  1282
5.16  1286
5.1625  1274
5.165  1286
5.1675  1290
5.17  1282
5.1725  1278
5.175  1282
5.1775  1271
5.18  1278
5.1825  1282
5.185  1282
5.1875  1294
5.19  1282
5.1925  1286
5.195  1282
5.1975  1278
5.2  1274
5.2025  1282
5.205  1294
5.2075  1278
5.21  1286
5.2125  1286
5.215  1278
5.2175  1282
5.22  1286
5.2225  1282
5.225  1282
5.2275  1282
5.23  1274
5.2325  1282
5.235  1278
5.2375  1282
5.24  1282
5.2425  1278
5.245  1282
5.2475  1274
5.25  1278
5.2525  1282
5.255  1282
5.2575  1278
5.26  1282
5.2625  1278
5.265  1286
5.2675  1298
5.27  1286
5.2725  1274
5.275  1274
5.2775  1282
5.28  1271
5.2825  1267
5.285  1274
5.2875  1267
5.29  1290
5.2925  1278
5.295  1278
5.2975  1274
5.3  1286
5.3025  1290
5.305  1286
5.3075  1286
5.31  1286
5.3125  1286
5.315  1274
5.3175  1286
5.32  1271
5.3225  1274
5.325  1278
5.3275  1278
5.33  1278
5.3325  1278
5.335  1282
5.3375  1282
5.34  1286
5.3425  1286
5.345  1282
5.3475  1282
5.35  1278
5.3525  1278
5.355  1290
5.3575  1274
5.36  1286
5.3625  1282
5.365  1290
5.3675  1282
5.37  1267
5.3725  1282
5.375  1294
5.3775  1271
5.38  1278
5.3825  1282
5.385  1278
5.3875  1278
5.39  1282
5.3925  1282
5.395  1278
5.3975  1278
5.4  1274
5.4025  1278
5.405  1282
5.4075  1286
5.41  1278
5.4125  1286
5.415  1274
5.4175  1286
5.42  1282
5.4225  1282
5.425  1278
5.4275  1282
5.43  1282
5.4325  1286
5.435  1282
5.4375  1282
5.44  1278
5.4425  1274
5.445  1282
5.4475  1286
5.45  1278
5.4525  1282
5.455  1278
5.4575  1290
5.46  1274
5.4625  1278
5.465  1278
5.4675  1290
5.47  1290
5.4725  1282
5.475  1271
5.4775  1282
5.48  1278
5.4825  1286
5.485  1278
5.4875  1286
5.49  1286
5.4925  1278
5.495  1282
5.4975  1282
5.5  1274
5.5025  1271
5.505  1271
5.5075  1271
5.51  1274
5.5125  1274
5.515  1282
5.5175  1282
5.52  1274
5.5225  1274
5.525  1286
5.5275  1290
5.53  1274
5.5325  1274
5.535  1282
5.5375  1274
5.54  1282
5.5425  1274
5.545  1294
5.5475  1278
5.55  1286
5.5525  1274
5.555  1271
5.5575  1278
5.56  1274
5.5625  1290
5.565  1286
5.5675  1282
5.57  1274
5.5725  1278
5.575  1278
5.5775  1282
5.58  1282
5.5825  1278
5.585  1278
5.5875  1274
5.59  1278
5.5925  1271
5.595  1274
5.5975  1286
5.6  1274
5.6025  1274
5.605  1282
5.6075  1278
5.61  1286
5.6125  1282
5.615  1274
5.6175  1278
5.62  1282
5.6225  1286
5.625  1286
5.6275  1282
5.63  1282
5.6325  1271
5.635  1278
5.6375  1282
5.64  1278
5.6425  1274
5.645  1286
5.6475  1290
5.65  1274
5.6525  1290
5.655  1282
5.6575  1274
5.66  1278
5.6625  1282
5.665  1278
5.6675  1290
5.67  1282
5.6725  1286
5.675  1274
5.6775  1274
5.68  1286
5.6825  1282
5.685  1278
5.6875  1278
5.69  1282
5.6925  1274
5.695  1271
5.6975  1294
5.7  1274
5.7025  1286
5.705  1282
5.7075  1282
5.71  1274
5.7125  1278
5.715  1282
5.7175  1290
5.72  1286
5.7225  1278
5.725  1278
5.7275  1282
5.73  1282
5.7325  1282
5.735  1274
5.7375  1282
5.74  1286
5.7425  1286
5.745  1278
5.7475  1278
5.75  1282
5.7525  1290
5.755  1290
5.7575  1278
5.76  0
5.7625  0
5.765  0
5.7675  0
5.77  0
5.7725  0
5.775  0
5.7775  0
5.78  0
5.7825  0
5.785  0
5.7875  0
5.79  0
5.7925  0
5.795  0
5.7975  0
5.8  0
5.8025  0
5.805  0
5.8075  0
5.81  0
5.8125  0
5.815  0
5.8175  0
5.82  0
5.8225  0
5.825  0
5.8275  0
5.83  0
5.8325  0
5.835  0
5.8375  0
5.84  0
5.8425  0
5.845  0
5.8475  0
5.85  0
5.8525  0
5.855  0
5.8575  0
5.86  0
5.8625  0
5.865  0
5.8675  0
5.87  0
5.8725  0
5.875  0
5.8775  0
5.88  0
5.8825  0
5.885  0
5.8875  0
5.89  0
5.8925  0
5.895  0
5.8975  0
5.9  0
5.9025  0
5.905  0
5.9075  0
5.91  0
5.9125  0
5.915  0
5.9175  0
5.92  0
5.9225  0
5.925  0
5.9275  0
5.93  0
5.9325  0
5.935  0
5.9375  0
5.94  0
5.9425  0
5.945  0
5.9475  0
5.95  0
5.9525  0
5.955  0
5.9575  0
5.96  0
5.9625  0
5.965  0
5.9675  0
5.97  0
5.9725  0
5.975  0
5.9775  0
5.98  0
5.9825  0
5.985  0
5.9875  0
5.99  0
5.9925  0
5.995  0
5.9975  0
6  0
6.0025  0
6.005  0
6.0075  0
6.01  0
6.0125  0
6.015  0
6.0175  0
6.02  0
6.0225  0
6.025  0
6.0275  0
6.03  0
6.0325  0
6.035  0
6.0375  0
6.04  0
6.0425  0
6.045  0
6.0475  0
6.05  0
6.0525  0
6.055  0
6.0575  0
6.06  0
6.0625  0
6.065  0
6.0675  0
6.07  0
6.0725  0
6.075  0
6.0775  0
6.08  0
6.0825  0
6.085  0
6.0875  0
6.09  0
6.0925  0
6.095  0
6.0975  0
6.1  0
6.1025  0
6.105  0
6.1075  0
6.11  0
6.1125  0
6.115  0
6.1175  0
6.12  0
6.1225  0
6.125  0
6.1275  0
6.13  0
6.1325  0
6.135  0
6.1375  0
6.14  0
6.1425  0
6.145  0
6.1475  0
6.15  0
6.1525  0
6.155  0
6.1575  0
6.16  0
6.1625  0
6.165  0
6.1675  0
6.17  0
6.1725  0
6.175  0
6.1775  0
6.18  0
6.1825  0
6.185  0
6.1875  0
6.19  0
6.1925  0
6.195  0
6.1975  0
6.2  0
6.2025  0
6.205  0
6.2075  0
6.21  0
6.2125  0
6.215  0
6.2175  0
6.22  0
6.2225  0
6.225  0
6.2275  0
6.23  0
6.2325  0
6.235  0
6.2375  0
6.24  0
6.2425  0
6.245  0
6.2475  0
6.25  0
6.2525  0
6.255  0
6.2575  0
6.26  0
6.2625  0
6.265  0
6.2675  0
6.27  0
6.2725  0
6.275  0
6.2775  0
6.28  0
6.2825  0
6.285  0
6.2875  0
6.29  0
6.2925  0
6.295  0
6.2975  0
6.3  0
6.3025  0
6.305  0
6.3075  0
6.31  0
6.3125  0
6.315  0
6.3175  0
6.32  0
6.3225  0
6.325  0
6.3275  0
6.33  0
6.3325  0
6.335  0
6.3375  0
6.34  0
6.3425  0
6.345  0
6.3475  0
6.35  0
6.3525  0
6.355  0
6.3575  0
6.36  0
6.3625  0
6.365  0
6.3675  0
6.37  0
6.3725  0
6.375  0
6.3775  0
6.38  0
6.3825  0
6.385  0
6.3875  0
6.39  0
6.3925  0
6.395  0
6.3975  0
6.4  1278
6.4025  1274
6.405  1274
6.4075  1278
6.41  1282
6.4125  1286
6.415  1282
6.4175  1278
6.42  1286
6.4225  1294
6.425  1286
6.4275  1286
6.43  1282
6.4325  1282
6.435  1282
6.4375  1286
6.44  1282
6.4425  1282
6.445  1278
6.4475  1274
6.45  1282
6.4525  1282
6.455  1282
6.4575  1286
6.46  1274
6.4625  1278
6.465  1290
6.4675  1282
6.47  1271
6.4725  1294
6.475  1274
6.4775  1282
6.48  1274
6.4825  1282
6.485  1274
6.4875  1286
6.49  1282
6.4925  1282
6.495  1286
6.4975  1282
6.5  1282
6.5025  1290
6.505  1282
6.5075  1274
6.51  1286
6.5125  1271
6.515  1286
6.5175  1274
6.52  1278
6.5225  1274
6.525  1290
6.5275  1278
6.53  1286
6.5325  1278
6.535  1286
6.5375  1282
6.54  1286
6.5425  1282
6.545  1286
6.5475  1274
6.55  1282
6.5525  1282
6.555  1282
6.5575  1286
6.56  1282
6.5625  1282
6.565  1278
6.5675  1282
6.57  1286
6.5725  1282
6.575  1286
6.5775  1282
6.58  1290
6.5825  1278
6.585  1290
6.5875  1278
6.59  1290
6.5925  1282
6.595  1294
6.5975  1282
6.6  1282
6.6025  1274
6.605  1286
6.6075  1298
6.61  1271
6.6125  1282
6.615  1282
6.6175  1271
6.62  1286
6.6225  1282
6.625  1282
6.6275  1278
6.63  1271
6.6325  1278
6.635  1290
6.6375  1278
6.64  1282
6.6425  1271
6.645  1274
6.6475  1290
6.65  1282
6.6525  1282
6.655  1278
6.6575  1286
6.66  1286
6.6625  1282
6.665  1286
6.6675  1290
6.67  1282
6.6725  1286
6.675  1267
6.6775  1286
6.68  1282
6.6825  1282
6.685  1286
6.6875  1286
6.69  1286
6.6925  1278
6.695  1274
6.6975  1278
6.7  1282
6.7025  1286
6.705  1278
6.7075  1282
6.71  1298
6.7125  1267
6.715  1271
6.7175  1274
6.72  1282
6.7225  1282
6.725  1271
6.7275  1282
6.73  1282
6.7325  1278
6.735  1274
6.7375  1271
6.74  1271
6.7425  1286
6.745  1274
6.7475  1274
6.75  1282
6.7525  1290
6.755  1274
6.7575  1278
6.76  1274
6.7625  1282
6.765  1274
6.7675  1290
6.77  1271
6.7725  1278
6.775  1278
6.7775  1282
6.78  1274
6.7825  1290
6.785  1286
6.7875  1286
6.79  1282
6.7925  1282
6.795  1278
6.7975  1278
6.8  1274
6.8025  1282
6.805  1278
6.8075  1294
6.81  1274
6.8125  1282
6.815  1282
6.8175  1286
6.82  1274
6.8225  1278
6.825  1282
6.8275  1286
6.83  1290
6.8325  1274
6.835  1274
6.8375  1298
6.84  1290
6.8425  1294
6.845  1282
6.8475  1286
6.85  1282
6.8525  1278
6.855  1282
6.8575  1286
6.86  1282
6.8625  1282
6.865  1278
6.8675  1274
6.87  1274
6.8725  1286
6.875  1286
6.8775  1278
6.88  1286
6.8825  1271
6.885  1271
6.8875  1278
6.89  1274
6.8925  1278
6.895  1282
6.8975  1278
6.9  1282
6.9025  1278
6.905  1278
6.9075  1286
6.91  1286
6.9125  1286
6.915  1274
6.9175  1274
6.92  1282
6.9225  1278
6.925  1282
6.9275  1282
6.93  1282
6.9325  1278
6.935  1290
6.9375  1271
6.94  1274
6.9425  1290
6.945  1282
6.9475  1274
6.95  1282
6.9525  1274
6.955  1282
6.9575  1286
6.96  1290
6.9625  1267
6.965  1274
6.9675  1282
6.97  1274
6.9725  1278
6.975  1282
6.9775  1286
6.98  1278
6.9825  1274
6.985  1282
6.9875  1278
6.99  1282
6.9925  1278
6.995  1278
6.9975  1282
7  1274
7.0025  1278
7.005  1274
7.0075  1274
7.01  1286
7.0125  1274
7.015  1278
7.0175  1286
7.02  1278
7.0225  1282
7.025  1271
7.0275  1282
7.03  1290
7.0325  1274
7.035  1286
7.0375  1282
7.04  0
7.0425  0
7.045  0
7.0475  0
7.05  0
7.0525  0
7.055  0
7.0575  0
7.06  0
7.0625  0
7.065  0
7.0675  0
7.07  0
7.0725  0
7.075  0
7.0775  0
7.08  0
7.0825  0
7.085  0
7.0875  0
7.09  0
7.0925  0
7.095  0
7.0975  0
7.1  0
7.1025  0
7.105  0
7.1075  0
7.11  0
7.1125  0
7.115  0
7.1175  0
7.12  0
7.1225  0
7.125  0
7.1275  0
7.13  0
7.1325  0
7.135  0
7.1375  0
7.14  0
7.1425  0
7.145  0
7.1475  0
7.15  0
7.1525  0
7.155  0
7.1575  0
7.16  0
7.1625  0
7.165  0
7.1675  0
7.17  0
7.1725  0
7.175  0
7.1775  0
7.18  0
7.1825  0
7.185  0
7.1875  0
7.19  0
7.1925  0
7.195  0
7.1975  0
7.2  0
7.2025  0
7.205  0
7.2075  0
7.21  0
7.2125  0
7.215  0
7.2175  0
7.22  0
7.2225  0
7.225  0
7.2275  0
7.23  0
7.2325  0
7.235  0
7.2375  0
7.24  0
7.2425  0
7.245  0
7.2475  0
7.25  0
7.2525  0
7.255  0
7.2575  0
7.26  0
7.2625  0
7.265  0
7.2675  0
7.27  0
7.2725  0
7.275  0
7.2775  0
7.28  0
7.2825  0
7.285  0
7.2875  0
7.29  0
7.2925  0
7.295  0
7.2975  0
7.3  0
7.3025  0
7.305  0
7.3075  0
7.31  0
7.3125  0
7.315  0
7.3175  0
7.32  0
7.3225  0
7.325  0
7.3275  0
7.33  0
7.3325  0
7.335  0
7.3375  0
7.34  0
7.3425  0
7.345  0
7.3475  0
7.35  0
7.3525  0
7.355  0
7.3575  0
7.36  0
7.3625  0
7.365  0
7.3675  0
7.37  0
7.3725  0
7.375  0
7.3775  0
7.38  0
7.3825  0
7.385  0
7.3875  0
7.39  0
7.3925  0
7.395  0
7.3975  0
7.4  0
7.4025  0
7.405  0
7.4075  0
7.41  0
7.4125  0
7.415  0
7.4175  0
7.42  0
7.4225  0
7.425  0
7.4275  0
7.43  0
7.4325  0
7.435  0
7.4375  0
7.44  0
7.4425  0
7.445  0
7.4475  0
7.45  0
7.4525  0
7.455  0
7.4575  0
7.46  0
7.4625  0
7.465  0
7.4675  0
7.47  0
7.4725  0
7.475  0
7.4775  0
7.48  0
7.4825  0
7.485  0
7.4875  0
7.49  0
7.4925  0
7.495  0
7.4975  0
7.5  0
7.5025  0
7.505  0
7.5075  0
7.51  0
7.5125  0
7.515  0
7.5175  0
7.52  0
7.5225  0
7.525  0
7.5275  0
7.53  0
7.5325  0
7.535  0
7.5375  0
7.54  0
7.5425  0
7.545  0
7.5475  0
7.55  0
7.5525  0
7.555  0
7.5575  0
7.56  0
7.5625  0
7.565  0
7.5675  0
7.57  0
7.5725  0
7.575  0
7.5775  0
7.58  0
7.5825  0
7.585  0
7.5875  0
7.59  0
7.5925  0
7.595  0
7.5975  0
7.6  0
7.6025  0
7.605  0
7.6075  0
7.61  0
7.6125  0
7.615  0
7.6175  0
7.62  0
7.6225  0
7.625  0
7.6275  0
7.63  0
7.6325  0
7.635  0
7.6375  0
7.64  0
7.6425  0
7.645  0
7.6475  0
7.65  0
7.6525  0
7.655  0
7.6575  0
7.66  0
7.6625  0
7.665  0
7.6675  0
7.67  0
7.6725  0
7.675  0
7.6775  0
7.68  1282
7.6825  1271
7.685  1290
7.6875  1282
7.69  1282
7.6925  1286
7.695  1278
7.6975  1274
7.7  1286
7.7025  1282
7.705  1282
7.7075  1286
7.71  1267
7.7125  1278
7.715  1290
7.7175  1274
7.72  1282
7.7225  1274
7.725  1282
7.7275  1267
7.73  1282
7.7325  1278
7.735  1282
7.7375  1274
7.74  1282
7.7425  1286
7.745  1274
7.7475  1286
7.75  1274
7.7525  1278
7.755  1282
7.7575  1278
7.76  1282
7.7625  1271
7.765  1282
7.7675  1282
7.77  1274
7.7725  1267
7.775  1282
7.7775  1286
7.78  1286
7.7825  1282
7.785  1271
7.7875  1278
7.79  1282
7.7925  1282
7.795  1282
7.7975  1271
7.8  1278
7.8025  1286
7.805  1274
7.8075  1274
7.81  1290
7.8125  1290
7.815  1290
7.8175  1290
7.82  1274
7.8225  1274
7.825  1294
7.8275  1282
7.83  1286
7.8325  1278
7.835  1282
7.8375  1278
7.84  1286
7.8425  1278
7.845  1278
7.8475  1278
7.85  1286
7.8525  1274
7.855  1274
7.8575  1278
7.86  1286
7.8625  1294
7.865  1286
7.8675  1282
7.87  1278
7.8725  1290
7.875  1282
7.8775  1290
7.88  1274
7.8825  1282
7.885  1282
7.8875  1278
7.89  1278
7.8925  1282
7.895  1282
7.8975  1282
7.9  1271
7.9025  1274
7.905  1278
7.9075  1278
7.91  1286
7.9125  1271
7.915  1282
7.9175  1282
7.92  1282
7.9225  1274
7.925  1278
7.9275  1282
7.93  1278
7.9325  1278
7.935  1278
7.9375  1278
7.94  1286
7.9425  1282
7.945  1282
7.9475  1267
7.95  1282
7.9525  1278
7.955  1278
7.9575  1286
7.96  1286
7.9625  1278
7.965  1286
7.9675  1274
7.97  1282
7.9725  1290
7.975  1286
7.9775  1267
7.98  1282
7.9825  1282
7.985  1271
7.9875  1278
7.99  1278
7.9925  1278
7.995  1282
7.9975  1278
8  1286
8.0025  1271
8.005  1286
8.0075  1282
8.01  1282
8.0125  1278
8.015  1267
8.0175  1290
8.02  1278
8.0225  1271
8.025  1274
8.0275  1282
8.03  1278
8.0325  1278
8.035  1267
8.0375  1271
8.04  1278
8.0425  1278
8.045  1282
8.0475  1286
8.05  1267
8.0525  1274
8.055  1286
8.0575  1286
8.06  1271
8.0625  1286
8.065  1282
8.0675  1282
8.07  1286
8.0725  1282
8.075  1290
8.0775  1286
8.08  1282
8.0825  1278
8.085  1282
8.0875  1274
8.09  1282
8.0925  1271
8.095  1286
8.0975  1286
8.1  1278
8.1025  1286
8.105  1282
8.1075  1290
8.11  1278
8.1125  1267
8.115  1282
8.1175  1286
8.12  1286
8.1225  1286
8.125  1290
8.1275  1282
8.13  1278
8.1325  1282
8.135  1294
8.1375  1278
8.14  1274
8.1425  1274
8.145  1278
8.1475  1274
8.15  1278
8.1525  1286
8.155  1274
8.1575  1278
8.16  1278
8.1625  1274
8.165  1286
8.1675  1278
8.17  1278
8.1725  1274
8.175  1271
8.1775  1267
8.18  1278
8.1825  1286
8.185  1282
8.1875  1278
8.19  1282
8.1925  1282
8.195  1290
8.1975  1290
8.2  1282
8.2025  1282
8.205  1274
8.2075  1286
8.21  1282
8.2125  1278
8.215  1278
8.2175  1278
8.22  1267
8.2225  1278
8.225  1286
8.2275  1259
8.23  1282
8.2325  1282
8.235  1290
8.2375  1282
8.24  1290
8.2425  1290
8.245  1282
8.2475  1298
8.25  1278
8.2525  1274
8.255  1278
8.2575  1286
8.26  1274
8.2625  1294
8.265  1278
8.2675  1278
8.27  1278
8.2725  1278
8.275  1290
8.2775  1278
8.28  1286
8.2825  1282
8.285  1278
8.2875  1274
8.29  1271
8.2925  1286
8.295  1278
8.2975  1278
8.3  1286
8.3025  1282
8.305  1286
8.3075  1278
8.31  1282
8.3125  1286
8.315  1282
8.3175  1282
8.32  0
8.3225  0
8.325  0
8.3275  0
8.33  0
8.3325  0
8.335  0
8.3375  0
8.34  0
8.3425  0
8.345  0
8.3475  0
8.35  0
8.3525  0
8.355  0
8.3575  0
8.36  0
8.3625  0
8.365  0
8.3675  0
8.37  0
8.3725  0
8.375  0
8.3775  0
8.38  0
8.3825  0
8.385  0
8.3875  0
8.39  0
8.3925  0
8.395  0
8.3975  0
8.4  0
8.4025  0
8.405  0
8.4075  0
8.41  0
8.4125  0
8.415  0
8.4175  0
8.42  0
8.4225  0
8.425  0
8.4275  0
8.43  0
8.4325  0
8.435  0
8.4375  0
8.44  0
8.4425  0
8.445  0
8.4475  0
8.45  0
8.4525  0
8.455  0
8.4575  0
8.46  0
8.4625  0
8.465  0
8.4675  0
8.47  0
8.4725  0
8.475  0
8.4775  0
8.48  0
8.4825  0
8.485  0
8.4875  0
8.49  0
8.4925  0
8.495  0
8.4975  0
8.5  0
8.5025  0
8.505  0
8.5075  0
8.51  0
8.5125  0
8.515  0
8.5175  0
8.52  0
8.5225  0
8.525  0
8.5275  0
8.53  0
8.5325  0
8.535  0
8.5375  0
8.54  0
8.5425  0
8.545  0
8.5475  0
8.55  0
8.5525  0
8.555  0
8.5575  0
8.56  0
8.5625  0
8.565  0
8.5675  0
8.57  0
8.5725  0
8.575  0
8.5775  0
8.58  0
8.5825  0
8.585  0
8.5875  0
8.59  0
8.5925  0
8.595  0
8.5975  0
8.6  0
8.6025  0
8.605  0
8.6075  0
8.61  0
8.6125  0
8.615  0
8.6175  0
8.62  0
8.6225  0
8.625  0
8.6275  0
8.63  0
8.6325  0
8.635  0
8.6375  0
8.64  0
8.6425  0
8.645  0
8.6475  0
8.65  0
8.6525  0
8.655  0
8.6575  0
8.66  0
8.6625  0
8.665  0
8.6675  0
8.67  0
8.6725  0
8.675  0
8.6775  0
8.68  0
8.6825  0
8.685  0
8.6875  0
8.69  0
8.6925  0
8.695  0
8.6975  0
8.7  0
8.7025  0
8.705  0
8.7075  0
8.71  0
8.7125  0
8.715  0
8.7175  0
8.72  0
8.7225  0
8.725  0
8.7275  0
8.73  0
8.7325  0
8.735  0
8.7375  0
8.74  0
8.7425  0
8.745  0
8.7475  0
8.75  0
8.7525  0
8.755  0
8.7575  0
8.76  0
8.7625  0
8.765  0
8.7675  0
8.77  0
8.7725  0
8.775  0
8.7775  0
8.78  0
8.7825  0
8.785  0
8.7875  0
8.79  0
8.7925  0
8.795  0
8.7975  0
8.8  0
8.8025  0
8.805  0
8.8075  0
8.81  0
8.8125  0
8.815  0
8.8175  0
8.82  0
8.8225  0
8.825  0
8.8275  0
8.83  0
8.8325  0
8.835  0
8.8375  0
8.84  0
8.8425  0
8.845  0
8.8475  0
8.85  0
8.8525  0
8.855  0
8.8575  0
8.86  0
8.8625  0
8.865  0
8.8675  0
8.87  0
8.8725  0
8.875  0
8.8775  0
8.88  0
8.8825  0
8.885  0
8.8875  0
8.89  0
8.8925  0
8.895  0
8.8975  0
8.9  0
8.9025  0
8.905  0
8.9075  0
8.91  0
8.9125  0
8.915  0
8.9175  0
8.92  0
8.9225  0
8.925  0
8.9275  0
8.93  0
8.9325  0
8.935  0
8.9375  0
8.94  0
8.9425  0
8.945  0
8.9475  0
8.95  0
8.9525  0
8.955  0
8.9575  0
8.96  1286
8.9625  1278
8.965  1278
8.9675  1278
8.97  1278
8.9725  1271
8.975  1282
8.9775  1274
8.98  1286
8.9825  1290
8.985  1282
8.9875  1286
8.99  1278
8.9925  1282
8.995  1278
8.9975  1282
9  1278
9.0025  1282
9.005  1274
9.0075  1282
9.01  1271
9.0125  1282
9.015  1274
9.0175  1286
9.02  1271
9.0225  1286
9.025  1282
9.0275  1282
9.03  1286
9.0325  1278
9.035  1278
9.0375  1278
9.04  1282
9.0425  1278
9.045  1290
9.0475  1286
9.05  1278
9.0525  1286
9.055  1282
9.0575  1278
9.06  1282
9.0625  1282
9.065  1282
9.0675  1278
9.07  1282
9.0725  1282
9.075  1278
9.0775  1267
9.08  1282
9.0825  1274
9.085  1267
9.0875  1278
9.09  1282
9.0925  1274
9.095  1278
9.0975  1271
9.1  1282
9.1025  1282
9.105  1290
9.1075  1278
9.11  1278
9.1125  1282
9.115  1286
9.1175  1278
9.12  1282
9.1225  1278
9.125  1282
9.1275  1286
9.13  1286
9.1325  1282
9.135  1267
9.1375  1278
9.14  1278
9.1425  1282
9.145  1278
9.1475  1278
9.15  1278
9.1525  1286
9.155  1282
9.1575  1282
9.16  1286
9.1625  1278
9.165  1286
9.1675  1278
9.17  1286
9.1725  1282
9.175  1278
9.1775  1274
9.18  1278
9.1825  1294
9.185  1282
9.1875  1282
9.19  1286
9.1925  1294
9.195  1286
9.1975  1271
9.2  1282
9.2025  1274
9.205  1282
9.2075  1290
9.21  1271
9.2125  1286
9.215  1274
9.2175  1282
9.22  1286
9.2225  1294
9.225  1286
9.2275  1278
9.23  1282
9.2325  1274
9.235  1282
9.2375  1278
9.24  1278
9.2425  1274
9.245  1282
9.2475  1282
9.25  1278
9.2525  1286
9.255  1278
9.2575  1278
9.26  1274
9.2625  1282
9.265  1282
9.2675  1274
9.27  1278
9.2725  1290
9.275  1278
9.2775  1282
9.28  1278
9.2825  1274
9.285  1282
9.2875  1282
9.29  1282
9.2925  1274
9.295  1274
9.2975  1274
9.3  1278
9.3025  1271
9.305  1294
9.3075  1278
9.31  1286
9.3125  1274
9.315  1282
9.3175  1286
9.32  1274
9.3225  1282
9.325  1290
9.3275  1290
9.33  1286
9.3325  1282
9.335  1282
9.3375  1282
9.34  1278
9.3425  1278
9.345  1278
9.3475  1282
9.35  1282
9.3525  1278
9.355  1286
9.3575  1286
9.36  1274
9.3625  1278
9.365  1274
9.3675  1278
9.37  1282
9.3725  1286
9.375  1286
9.3775  1278
9.38  1278
9.3825  1290
9.385  1278
9.3875  1282
9.39  1290
9.3925  1286
9.395  1271
9.3975  1286
9.4  1282
9.4025  1278
9.405  1282
9.4075  1271
9.41  1274
9.4125  1278
9.415  1282
9.4175  1278
9.42  1286
9.4225  1286
9.425  1278
9.4275  1282
9.43  1278
9.4325  1286
9.435  1282
9.4375  1282
9.44  1278
9.4425  1282
9.445  1282
9.4475  1282
9.45  1294
9.4525  1271
9.455  1278
9.4575  1278
9.46  1278
9.4625  1282
9.465  1274
9.4675  1278
9.47  1278
9.4725  1282
9.475  1278
9.4775  1271
9.48  1274
9.4825  1282
9.485  1271
9.4875  1290
9.49  1278
9.4925  1278
9.495  1278
9.4975  1286
9.5  1290
9.5025  1274
9.505  1282
9.5075  1271
9.51  1278
9.5125  1278
9.515  1282
9.5175  1278
9.52  1278
9.5225  1278
9.525  1263
9.5275  1282
9.53  1282
9.5325  1278
9.535  1278
9.5375  1286
9.54  1282
9.5425  1290
9.545  1282
9.5475  1286
9.55  1278
9.5525  1282
9.555  1278
9.5575  1278
9.56  1278
9.5625  1286
9.565  1286
9.5675  1278
9.57  1286
9.5725  1290
9.575  1298
9.5775  1286
9.58  1282
9.5825  1278
9.585  1271
9.5875  1271
9.59  1282
9.5925  1298
9.595  1282
9.5975  1294
9.6  0
9.6025  0
9.605  0
9.6075  0
9.61  0
9.6125  0
9.615  0
9.6175  0
9.62  0
9.6225  0
9.625  0
9.6275  0
9.63  0
9.6325  0
9.635  0
9.6375  0
9.64  0
9.6425  0
9.645  0
9.6475  0
9.65  0
9.6525  0
9.655  0
9.6575  0
9.66  0
9.6625  0
9.665  0
9.6675  0
9.67  0
9.6725  0
9.675  0
9.6775  0
9.68  0
9.6825  0
9.685  0
9.6875  0
9.69  0
9.6925  0
9.695  0
9.6975  0
9.7  0
9.7025  0
9.705  0
9.7075  0
9.71  0
9.7125  0
9.715  0
9.7175  0
9.72  0
9.7225  0
9.725  0
9.7275  0
9.73  0
9.7325  0
9.735  0
9.7375  0
9.74  0
9.7425  0
9.745  0
9.7475  0
9.75  0
9.7525  0
9.755  0
9.7575  0
9.76  0
9.7625  0
9.765  0
9.7675  0
9.77  0
9.7725  0
9.775  0
9.7775  0
9.78  0
9.7825  0
9.785  0
9.7875  0
9.79  0
9.7925  0
9.795  0
9.7975  0
9.8  0
9.8025  0
9.805  0
9.8075  0
9.81  0
9.8125  0
9.815  0
9.8175  0
9.82  0
9.8225  0
9.825  0
9.8275  0
9.83  0
9.8325  0
9.835  0
9.8375  0
9.84  0
9.8425  0
9.845  0
9.8475  0
9.85  0
9.8525  0
9.855  0
9.8575  0
9.86  0
9.8625  0
9.865  0
9.8675  0
9.87  0
9.8725  0
9.875  0
9.8775  0
9.88  0
9.8825  0
9.885  0
9.8875  0
9.89  0
9.8925  0
9.895  0
9.8975  0
9.9  0
9.9025  0
9.905  0
9.9075  0
9.91  0
9.9125  0
9.915  0
9.9175  0
9.92  0
9.9225  0
9.925  0
9.9275  0
9.93  0
9.9325  0
9.935  0
9.9375  0
9.94  0
9.9425  0
9.945  0
9.9475  0
9.95  0
9.9525  0
9.955  0
9.9575  0
9.96  0
9.9625  0
9.965  0
9.9675  0
9.97  0
9.9725  0
9.975  0
9.9775  0
9.98  0
9.9825  0
9.985  0
9.9875  0
9.99  0
9.9925  0
9.995  0
9.9975  0
10  0
10.0025  0
10.005  0
10.0075  0
10.01  0
10.0125  0
10.015  0
10.0175  0
10.02  0
10.0225  0
10.025  0
10.0275  0
10.03  0
10.0325  0
10.035  0
10.0375  0
10.04  0
10.0425  0
10.045  0
10.0475  0
10.05  0
10.0525  0
10.055  0
10.0575  0
10.06  0
10.0625  0
10.065  0
10.0675  0
10.07  0
10.0725  0
10.075  0
10.0775  0
10.08  0
10.0825  0
10.085  0
10.0875  0
10.09  0
10.0925  0
10.095  0
10.0975  0
10.1  0
10.1025  0
10.105  0
10.1075  0
10.11  0
10.1125  0
10.115  0
10.1175  0
10.12  0
10.1225  0
10.125  0
10.1275  0
10.13  0
10.1325  0
10.135  0
10.1375  0
10.14  0
10.1425  0
10.145  0
10.1475  0
10.15  0
10.1525  0
10.155  0
10.1575  0
10.16  0
10.1625  0
10.165  0
10.1675  0
10.17  0
10.1725  0
10.175  0
10.1775  0
10.18  0
10.1825  0
10.185  0
10.1875  0
10.19  0
10.1925  0
10.195  0
10.1975  0
10.2  0
10.2025  0
10.205  0
10.2075  0
10.21  0
10.2125  0
10.215  0
10.2175  0
10.22  0
10.2225  0
10.225  0
10.2275  0
10.23  0
10.2325  0
10.235  0
10.2375  0
10.24  1290
10.2425  1271
10.245  1271
10.2475  1278
10.25  1271
10.2525  1294
10.255  1278
10.2575  1278
10.26  1282
10.2625  1282
10.265  1286
10.2675  1294
10.27  1274
10.2725  1278
10.275  1278
10.2775  1278
10.28  1282
10.2825  1290
10.285  1278
10.2875  1278
10.29  1282
10.2925  1286
10.295  1282
10.2975  1282
10.3  1282
10.3025  1274
10.305  1271
10.3075  1282
10.31  1278
10.3125  1282
10.315  1290
10.3175  1278
10.32  1271
10.3225  1274
10.325  1286
10.3275  1274
10.33  1274
10.3325  1282
10.335  1278
10.3375  1290
10.34  1278
10.3425  1286
10.345  1282
10.3475  1286
10.35  1271
10.3525  1274
10.355  1290
10.3575  1278
10.36  1282
10.3625  1282
10.365  1282
10.3675  1271
10.37  1282
10.3725  1282
10.375  1286
10.3775  1282
10.38  1286
10.3825  1271
10.385  1290
10.3875  1282
10.39  1282
10.3925  1274
10.395  1278
10.3975  1282
10.4  1282
10.4025  1278
10.405  1290
10.4075  1271
10.41  1274
10.4125  1282
10.415  1282
10.4175  1271
10.42  1282
10.4225  1271
10.425  1282
10.4275  1274
10.43  1278
10.4325  1282
10.435  1278
10.4375  1290
10.44  1282
10.4425  1274
10.445  1278
10.4475  1286
10.45  1274
10.4525  1290
10.455  1278
10.4575  1286
10.46  1278
10.4625  1286
10.465  1282
10.4675  1282
10.47  1282
10.4725  1271
10.475  1286
10.4775  1282
10.48  1274
10.4825  1271
10.485  1282
10.4875  1282
10.49  1278
10.4925  1282
10.495  1278
10.4975  1282
10.5  1278
10.5025  1282
10.505  1282
10.5075  1278
10.51  1278
10.5125  1286
10.515  1278
10.5175  1278
10.52  1282
10.5225  1274
10.525  1278
10.5275  1278
10.53  1282
10.5325  1278
10.535  1274
10.5375  1282
10.54  1278
10.5425  1286
10.545  1271
10.5475  1286
10.55  1286
10.5525  1278
10.555  1282
10.5575  1278
10.56  1286
10.5625  1282
10.565  1263
10.5675  1278
10.57  1271
10.5725  1282
10.575  1282
10.5775  1282
10.58  1274
10.5825  1282
10.585  1286
10.5875  1274
10.59  1274
10.5925  1290
10.595  1290
10.5975  1290
10.6  1278
10.6025  1278
10.605  1278
10.6075  1282
10.61  1286
10.6125  1290
10.615  1282
10.6175  1286
10.62  1278
10.6225  1286
10.625  1290
10.6275  1271
10.63  1282
10.6325  1278
10.635  1286
10.6375  1263
10.64  1278
10.6425  1286
10.645  1282
10.6475  1282
10.65  1278
10.6525  1271
10.655  1282
10.6575  1290
10.66  1278
10.6625  1282
10.665  1274
10.6675  1278
10.67  1274
10.6725  1271
10.675  1282
10.6775  1290
10.68  1286
10.6825  1274
10.685  1278
10.6875  1286
10.69  1290
10.6925  1290
10.695  1278
10.6975  1294
10.7  1278
10.7025  1290
10.705  1274
10.7075  1278
10.71  1271
10.7125  1274
10.715  1274
10.7175  1278
10.72  1294
10.7225  1271
10.725  1282
10.7275  1282
10.73  1282
10.7325  1286
10.735  1278
10.7375  1286
10.74  1274
10.7425  1286
10.745  1282
10.7475  1286
10.75  1278
10.7525  1278
10.755  1282
10.7575  1286
10.76  1274
10.7625  1282
10.765  1282
10.7675  1282
10.77  1278
10.7725  1286
10.775  1282
10.7775  1286
10.78  1282
10.7825  1278
10.785  1286
10.7875  1290
10.79  1282
10.7925  1274
10.795  1278
10.7975  1282
10.8  1274
10.8025  1274
10.805  1278
10.8075  1278
10.81  1274
10.8125  1274
10.815  1278
10.8175  1294
10.82  1290
10.8225  1286
10.825  1286
10.8275  1278
10.83  1286
10.8325  1286
10.835  1286
10.8375  1282
10.84  1278
10.8425  1282
10.845  1282
10.8475  1274
10.85  1290
10.8525  1286
10.855  1278
10.8575  1282
10.86  1274
10.8625  1286
10.865  1298
10.8675  1274
10.87  1274
10.8725  1294
10.875  1278
10.8775  1282
10.88  0
10.8825  0
10.885  0
10.8875  0
10.89  0
10.8925  0
10.895  0
10.8975  0
10.9  0
10.9025  0
10.905  0
10.9075  0
10.91  0
10.9125  0
10.915  0
10.9175  0
10.92  0
10.9225  0
10.925  0
10.9275  0
10.93  0
10.9325  0
10.935  0
10.9375  0
10.94  0
10.9425  0
10.945  0
10.9475  0
10.95  0
10.9525  0
10.955  0
10.9575  0
10.96  0
10.9625  0
10.965  0
10.9675  0
10.97  0
10.9725  0
10.975  0
10.9775  0
10.98  0
10.9825  0
10.985  0
10.9875  0
10.99  0
10.9925  0
10.995  0
10.9975  0
11  0
11.0025  0
11.005  0
11.0075  0
11.01  0
11.0125  0
11.015  0
11.0175  0
11.02  0
11.0225  0
11.025  0
11.0275  0
11.03  0
11.0325  0
11.035  0
11.0375  0
11.04  0
11.0425  0
11.045  0
11.0475  0
11.05  0
11.0525  0
11.055  0
11.0575  0
11.06  0
11.0625  0
11.065  0
11.0675  0
11.07  0
11.0725  0
11.075  0
11.0775  0
11.08  0
11.0825  0
11.085  0
11.0875  0
11.09  0
11.0925  0
11.095  0
11.0975  0
11.1  0
11.1025  0
11.105  0
11.1075  0
11.11  0
11.1125  0
11.115  0
11.1175  0
11.12  0
11.1225  0
11.125  0
11.1275  0
11.13  0
11.1325  0
11.135  0
11.1375  0
11.14  0
11.1425  0
11.145  0
11.1475  0
11.15  0
11.1525  0
11.155  0
11.1575  0
11.16  0
11.1625  0
11.165  0
11.1675  0
11.17  0
11.1725  0
11.175  0
11.1775  0
11.18  0
11.1825  0
11.185  0
11.1875  0
11.19  0
11.1925  0
11.195  0
11.1975  0
11.2  0
11.2025  0
11.205  0
11.2075  0
11.21  0
11.2125  0
11.215  0
11.2175  0
11.22  0
11.2225  0
11.225  0
11.2275  0
11.23  0
11.2325  0
11.235  0
11.2375  0
11.24  0
11.2425  0
11.245  0
11.2475  0
11.25  0
11.2525  0
11.255  0
11.2575  0
11.26  0
11.2625  0
11.265  0
11.2675  0
11.27  0
11.2725  0
11.275  0
11.2775  0
11.28  0
11.2825  0
11.285  0
11.2875  0
11.29  0
11.2925  0
11.295  0
11.2975  0
11.3  0
11.3025  0
11.305  0
11.3075  0
11.31  0
11.3125  0
11.315  0
11.3175  0
11.32  0
11.3225  0
11.325  0
11.3275  0
11.33  0
11.3325  0
11.335  0
11.3375  0
11.34  0
11.3425  0
11.345  0
11.3475  0
11.35  0
11.3525  0
11.355  0
11.3575  0
11.36  0
11.3625  0
11.365  0
11.3675  0
11.37  0
11.3725  0
11.375  0
11.3775  0
11.38  0
11.3825  0
11.385  0
11.3875  0
11.39  0
11.3925  0
11.395  0
11.3975  0
11.4  0
11.4025  0
11.405  0
11.4075  0
11.41  0
11.4125  0
11.415  0
11.4175  0
11.42  0
11.4225  0
11.425  0
11.4275  0
11.43  0
11.4325  0
11.435  0
11.4375  0
11.44  0
11.4425  0
11.445  0
11.4475  0
11.45  0
11.4525  0
11.455  0
11.4575  0
11.46  0
11.4625  0
11.465  0
11.4675  0
11.47  0
11.4725  0
11.475  0
11.4775  0
11.48  0
11.4825  0
11.485  0
11.4875  0
11.49  0
11.4925  0
11.495  0
11.4975  0
11.5  0
11.5025  0
11.505  0
11.5075  0
11.51  0
11.5125  0
11.515  0
11.5175  0
11.52  1274
11.5225  1271
11.525  1274
11.5275  1282
11.53  1286
11.5325  1274
11.535  1278
11.5375  1274
11.54  1286
11.5425  1278
11.545  1290
11.5475  1274
11.55  1286
11.5525  1286
11.555  1298
11.5575  1286
11.56  1282
11.5625  1282
11.565  1278
11.5675  1274
11.57  1290
11.5725  1286
11.575  1271
11.5775  1282
11.58  1290
11.5825  1282
11.585  1286
11.5875  1282
11.59  1286
11.5925  1282
11.595  1286
11.5975  1282
11.6  1282
11.6025  1282
11.605  1282
11.6075  1274
11.61  1282
11.6125  1282
11.615  1290
11.6175  1274
11.62  1278
11.6225  1282
11.625  1282
11.6275  1286
11.63  1278
11.6325  1278
11.635  1286
11.6375  1278
11.64  1286
11.6425  1282
11.645  1282
11.6475  1286
11.65  1274
11.6525  1271
11.655  1282
11.6575  1286
11.66  1282
11.6625  1286
11.665  1282
11.6675  1278
11.67  1286
11.6725  1286
11.675  1282
11.6775  1263
11.68  1286
11.6825  1282
11.685  1282
11.6875  1282
11.69  1271
11.6925  1282
11.695  1271
11.6975  1286
11.7  1278
11.7025  1290
11.705  1286
11.7075  1274
11.71  1286
11.7125  1282
11.715  1282
11.7175  1278
11.72  1278
11.7225  1286
11.725  1278
11.7275  1282
11.73  1278
11.7325  1286
11.735  1278
11.7375  1278
11.74  1290
11.7425  1282
11.745  1278
11.7475  1286
11.75  1286
11.7525  1286
11.755  1274
11.7575  1282
11.76  1278
11.7625  1278
11.765  1274
11.7675  1274
11.77  1278
11.7725  1282
11.775  1282
11.7775  1282
11.78  1278
11.7825  1282
11.785  1286
11.7875  1282
11.79  1274
11.7925  1263
11.795  1290
11.7975  1278
11.8  1286
11.8025  1274
11.805  1278
11.8075  1282
11.81  1282
11.8125  1278
11.815  1274
11.8175  1278
11.82  1278
11.8225  1274
11.825  1282
11.8275  1278
11.83  1286
11.8325  1271
11.835  1278
11.8375  1278
11.84  1278
11.8425  1278
11.845  1286
11.8475  1282
11.85  1274
11.8525  1282
11.855  1286
11.8575  1286
11.86  1271
11.8625  1271
11.865  1278
11.8675  1278
11.87  1278
11.8725  1282
11.875  1282
11.8775  1282
11.88  1274
11.8825  1278
11.885  1278
11.8875  1290
11.89  1294
11.8925  1267
11.895  1282
11.8975  1282
11.9  1282
11.9025  1271
11.905  1282
11.9075  1278
11.91  1282
11.9125  1282
11.915  1278
11.9175  1267
11.92  1274
11.9225  1294
11.925  1286
11.9275  1282
11.93  1282
11.9325  1274
11.935  1286
11.9375  1282
11.94  1282
11.9425  1282
11.945  1274
11.9475  1282
11.95  1278
11.9525  1290
11.955  1286
11.9575  1278
11.96  1286
11.9625  1271
11.965  1274
11.9675  1274
11.97  1278
11.9725  1286
11.975  1271
11.9775  1271
11.98  1278
11.9825  1278
11.985  1286
11.9875  1278
11.99  1286
11.9925  1286
11.995  1282
11.9975  1290
12  1286
12.0025  1286
12.005  1290
12.0075  1282
12.01  1282
12.0125  1278
12.015  1274
12.0175  1286
12.02  1282
12.0225  1286
12.025  1286
12.0275  1282
12.03  1290
12.0325  1278
12.035  1282
12.0375  1271
12.04  1282
12.0425  1286
12.045  1282
12.0475  1286
12.05  1282
12.0525  1282
12.055  1278
12.0575  1282
12.06  1282
12.0625  1290
12.065  1278
12.0675  1290
12.07  1278
12.0725  1274
12.075  1278
12.0775  1294
12.08  1274
12.0825  1278
12.085  1282
12.0875  1274
12.09  1282
12.0925  1282
12.095  1282
12.0975  1282
12.1  1274
12.1025  1282
12.105  1294
12.1075  1282
12.11  1282
12.1125  1282
12.115  1282
12.1175  1282
12.12  1290
12.1225  1286
12.125  1282
12.1275  1278
12.13  1286
12.1325  1278
12.135  1286
12.1375  1278
12.14  1274
12.1425  1274
12.145  1282
12.1475  1286
12.15  1278
12.1525  1278
12.155  1278
12.1575  1271
12.16  0
12.1625  0
12.165  0
12.1675  0
12.17  0
12.1725  0
12.175  0
12.1775  0
12.18  0
12.1825  0
12.185  0
12.1875  0
12.19  0
12.1925  0
12.195  0
12.1975  0
12.2  0
12.2025  0
12.205  0
12.2075  0
12.21  0
12.2125  0
12.215  0
12.2175  0
12.22  0
12.2225  0
12.225  0
12.2275  0
12.23  0
12.2325  0
12.235  0
12.2375  0
12.24  0
12.2425  0
12.245  0
12.2475  0
12.25  0
12.2525  0
12.255  0
12.2575  0
12.26  0
12.2625  0
12.265  0
12.2675  0
12.27  0
12.2725  0
12.275  0
12.2775  0
12.28  0
12.2825  0
12.285  0
12.2875  0
12.29  0
12.2925  0
12.295  0
12.2975  0
12.3  0
12.3025  0
12.305  0
12.3075  0
12.31  0
12.3125  0
12.315  0
12.3175  0
12.32  0
12.3225  0
12.325  0
12.3275  0
12.33  0
12.3325  0
12.335  0
12.3375  0
12.34  0
12.3425  0
12.345  0
12.3475  0
12.35  0
12.3525  0
12.355  0
12.3575  0
12.36  0
12.3625  0
12.365  0
12.3675  0
12.37  0
12.3725  0
12.375  0
12.3775  0
12.38  0
12.3825  0
12.385  0
12.3875  0
12.39  0
12.3925  0
12.395  0
12.3975  0
12.4  0
12.4025  0
12.405  0
12.4075  0
12.41  0
12.4125  0
12.415  0
12.4175  0
12.42  0
12.4225  0
12.425  0
12.4275  0
12.43  0
12.4325  0
12.435  0
12.4375  0
12.44  0
12.4425  0
12.445  0
12.4475  0
12.45  0
12.4525  0
12.455  0
12.4575  0
12.46  0
12.4625  0
12.465  0
12.4675  0
12.47  0
12.4725  0
12.475  0
12.4775  0
12.48  0
12.4825  0
12.485  0
12.4875  0
12.49  0
12.4925  0
12.495  0
12.4975  0
12.5  0
12.5025  0
12.505  0
12.5075  0
12.51  0
12.5125  0
12.515  0
12.5175  0
12.52  0
12.5225  0
12.525  0
12.5275  0
12.53  0
12.5325  0
12.535  0
12.5375  0
12.54  0
12.5425  0
12.545  0
12.5475  0
12.55  0
12.5525  0
12.555  0
12.5575  0
12.56  0
12.5625  0
12.565  0
12.5675  0
12.57  0
12.5725  0
12.575  0
12.5775  0
12.58  0
12.5825  0
12.585  0
12.5875  0
12.59  0
12.5925  0
12.595  0
12.5975  0
12.6  0
12.6025  0
12.605  0
12.6075  0
12.61  0
12.6125  0
12.615  0
12.6175  0
12.62  0
12.6225  0
12.625  0
12.6275  0
12.63  0
12.6325  0
12.635  0
12.6375  0
12.64  0
12.6425  0
12.645  0
12.6475  0
12.65  0
12.6525  0
12.655  0
12.6575  0
12.66  0
12.6625  0
12.665  0
12.6675  0
12.67  0
12.6725  0
12.675  0
12.6775  0
12.68  0
12.6825  0
12.685  0
12.6875  0
12.69  0
12.6925  0
12.695  0
12.6975  0
12.7  0
12.7025  0
12.705  0
12.7075  0
12.71  0
12.7125  0
12.715  0
12.7175  0
12.72  0
12.7225  0
12.725  0
12.7275  0
12.73  0
12.7325  0
12.735  0
12.7375  0
12.74  0
12.7425  0
12.745  0
12.7475  0
12.75  0
12.7525  0
12.755  0
12.7575  0
12.76  0
12.7625  0
12.765  0
12.7675  0
12.77  0
12.7725  0
12.775  0
12.7775  0
12.78  0
12.7825  0
12.785  0
12.7875  0
12.79  0
12.7925  0
12.795  0
12.7975  0
12.8  1271
12.8025  1282
12.805  1282
12.8075  1274
12.81  1282
12.8125  1274
12.815  1274
12.8175  1286
12.82  1282
12.8225  1282
12.825  1274
12.8275  1286
12.83  1282
12.8325  1290
12.835  1278
12.8375  1286
12.84  1282
12.8425  1278
12.845  1282
12.8475  1286
12.85  1286
12.8525  1282
12.855  1274
12.8575  1282
12.86  1286
12.8625  1278
12.865  1282
12.8675  1278
12.87  1286
12.8725  1278
12.875  1282
12.8775  1278
12.88  1282
12.8825  1274
12.885  1278
12.8875  1282
12.89  1278
12.8925  1286
12.895  1282
12.8975  1282
12.9  1278
12.9025  1282
12.905  1282
12.9075  1298
12.91  1282
12.9125  1282
12.915  1278
12.9175  1278
12.92  1282
12.9225  1282
12.925  1294
12.9275  1290
12.93  1290
12.9325  1278
12.935  1274
12.9375  1278
12.94  1282
12.9425  1274
12.945  1282
12.9475  1290
12.95  1274
12.9525  1278
12.955  1282
12.9575  1286
12.96  1282
12.9625  1282
12.965  1278
12.9675  1282
12.97  1271
12.9725  1282
12.975  1278
12.9775  1271
12.98  1294
12.9825  1278
12.985  1274
12.9875  1267
12.99  1282
12.9925  1282
12.995  1282
12.9975  1274
13  1286
13.0025  1282
13.005  1294
13.0075  1282
13.01  1282
13.0125  1278
13.015  1286
13.0175  1282
13.02  1278
13.0225  1286
13.025  1278
13.0275  1286
13.03  1282
13.0325  1282
13.035  1274
13.0375  1282
13.04  1282
13.0425  1286
13.045  1282
13.0475  1286
13.05  1282
13.0525  1286
13.055  1282
13.0575  1278
13.06  1282
13.0625  1274
13.065  1278
13.0675  1278
13.07  1282
13.0725  1278
13.075  1282
13.0775  1274
13.08  1278
13.0825  1282
13.085  1286
13.0875  1286
13.09  1286
13.0925  1271
13.095  1271
13.0975  1278
13.1  1274
13.1025  1286
13.105  1286
13.1075  1286
13.11  1282
13.1125  1290
13.115  1282
13.1175  1282
13.12  1286
13.1225  1267
13.125  1267
13.1275  1263
13.13  1274
13.1325  1274
13.135  1278
13.1375  1274
13.14  1282
13.1425  1286
13.145  1282
13.1475  1274
13.15  1274
13.1525  1278
13.155  1278
13.1575  1278
13.16  1282
13.1625  1286
13.165  1278
13.1675  1286
13.17  1278
13.1725  1274
13.175  1294
13.1775  1278
13.18  1282
13.1825  1282
13.185  1282
13.1875  1274
13.19  1290
13.1925  1278
13.195  1286
13.1975  1274
13.2  1271
13.2025  1286
13.205  1282
13.2075  1271
13.21  1278
13.2125  1274
13.215  1274
13.2175  1282
13.22  1290
13.2225  1278
13.225  1282
13.2275  1286
13.23  1286
13.2325  1278
13.235  1298
13.2375  1286
13.24  1282
13.2425  1282
13.245  1278
13.2475  1282
13.25  1282
13.2525  1286
13.255  1278
13.2575  1298
13.26  1271
13.2625  1278
13.265  1274
13.2675  1286
13.27  1271
13.2725  1271
13.275  1282
13.2775  1282
13.28  1278
13.2825  1282
13.285  1274
13.2875  1274
13.29  1282
13.2925  1286
13.295  1282
13.2975  1278
13.3  1282
13.3025  1290
13.305  1282
13.3075  1290
13.31  1282
13.3125  1278
13.315  1274
13.3175  1286
13.32  1290
13.3225  1267
13.325  1274
13.3275  1286
13.33  1282
13.3325  1286
13.335  1271
13.3375  1278
13.34  1278
13.3425  1282
13.345  1271
13.3475  1286
13.35  1278
13.3525  1286
13.355  1271
13.3575  1282
13.36  1286
13.3625  1278
13.365  1282
13.3675  1271
13.37  1282
13.3725  1282
13.375  1282
13.3775  1282
13.38  1282
13.3825  1278
13.385  1278
13.3875  1282
13.39  1294
13.3925  1278
13.395  1282
13.3975  1274
13.4  1282
13.4025  1274
13.405  1282
13.4075  1274
13.41  1290
13.4125  1286
13.415  1267
13.4175  1274
13.42  1274
13.4225  1274
13.425  1282
13.4275  1282
13.43  1282
13.4325  1267
13.435  1274
13.4375  1274
13.44  0
13.4425  0
13.445  0
13.4475  0
13.45  0
13.4525  0
13.455  0
13.4575  0
13.46  0
13.4625  0
13.465  0
13.4675  0
13.47  0
13.4725  0
13.475  0
13.4775  0
13.48  0
13.4825  0
13.485  0
13.4875  0
13.49  0
13.4925  0
13.495  0
13.4975  0
13.5  0
13.5025  0
13.505  0
13.5075  0
13.51  0
13.5125  0
13.515  0
13.5175  0
13.52  0
13.5225  0
13.525  0
13.5275  0
13.53  0
13.5325  0
13.535  0
13.5375  0
13.54  0
13.5425  0
13.545  0
13.5475  0
13.55  0
13.5525  0
13.555  0
13.5575  0
13.56  0
13.5625  0
13.565  0
13.5675  0
13.57  0
13.5725  0
13.575  0
13.5775  0
13.58  0
13.5825  0
13.585  0
13.5875  0
13.59  0
13.5925  0
13.595  0
13.5975  0
13.6  0
13.6025  0
13.605  0
13.6075  0
13.61  0
13.6125  0
13.615  0
13.6175  0
13.62  0
13.6225  0
13.625  0
13.6275  0
13.63  0
13.6325  0
13.635  0
13.6375  0
13.64  0
13.6425  0
13.645  0
13.6475  0
13.65  0
13.6525  0
13.655  0
13.6575  0
13.66  0
13.6625  0
13.665  0
13.6675  0
13.67  0
13.6725  0
13.675  0
13.6775  0
13.68  0
13.6825  0
13.685  0
13.6875  0
13.69  0
13.6925  0
13.695  0
13.6975  0
13.7  0
13.7025  0
13.705  0
13.7075  0
13.71  0
13.7125  0
13.715  0
13.7175  0
13.72  0
13.7225  0
13.725  0
13.7275  0
13.73  0
13.7325  0
13.735  0
13.7375  0
13.74  0
13.7425  0
13.745  0
13.7475  0
13.75  0
13.7525  0
13.755  0
13.7575  0
13.76  0
13.7625  0
13.765  0
13.7675  0
13.77  0
13.7725  0
13.775  0
13.7775  0
13.78  0
13.7825  0
13.785  0
13.7875  0
13.79  0
13.7925  0
13.795  0
13.7975  0
13.8  0
13.8025  0
13.805  0
13.8075  0
13.81  0
13.8125  0
13.815  0
13.8175  0
13.82  0
13.8225  0
13.825  0
13.8275  0
13.83  0
13.8325  0
13.835  0
13.8375  0
13.84  0
13.8425  0
13.845  0
13.8475  0
13.85  0
13.8525  0
13.855  0
13.8575  0
13.86  0
13.8625  0
13.865  0
13.8675  0
13.87  0
13.8725  0
13.875  0
13.8775  0
13.88  0
13.8825  0
13.885  0
13.8875  0
13.89  0
13.8925  0
13.895  0
13.8975  0
13.9  0
13.9025  0
13.905  0
13.9075  0
13.91  0
13.9125  0
13.915  0
13.9175  0
13.92  0
13.9225  0
13.925  0
13.9275  0
13.93  0
13.9325  0
13.935  0
13.9375  0
13.94  0
13.9425  0
13.945  0
13.9475  0
13.95  0
13.9525  0
13.955  0
13.9575  0
13.96  0
13.9625  0
13.965  0
13.9675  0
13.97  0
13.9725  0
13.975  0
13.9775  0
13.98  0
13.9825  0
13.985  0
13.9875  0
13.99  0
13.9925  0
13.995  0
13.9975  0
14  0
14.0025  0
14.005  0
14.0075  0
14.01  0
14.0125  0
14.015  0
14.0175  0
14.02  0
14.0225  0
14.025  0
14.0275  0
14.03  0
14.0325  0
14.035  0
14.0375  0
14.04  0
14.0425  0
14.045  0
14.0475  0
14.05  0
14.0525  0
14.055  0
14.0575  0
14.06  0
14.0625  0
14.065  0
14.0675  0
14.07  0
14.0725  0
14.075  0
14.0775  0
14.08  1290
14.0825  1282
14.085  1278
14.0875  1282
14.09  1278
14.0925  1271
14.095  1282
14.0975  1282
14.1  1282
14.1025  1278
14.105  1282
14.1075  1278
14.11  1282
14.1125  1282
14.115  1282
14.1175  1274
14.12  1278
14.1225  1271
14.125  1271
14.1275  1278
14.13  1286
14.1325  1286
14.135  1278
14.1375  1282
14.14  1274
14.1425  1286
14.145  1274
14.1475  1286
14.15  1282
14.1525  1290
14.155  1282
14.1575  1278
14.16  1278
14.1625  1282
14.165  1282
14.1675  1274
14.17  1290
14.1725  1282
14.175  1282
14.1775  1271
14.18  1290
14.1825  1278
14.185  1278
14.1875  1282
14.19  1274
14.1925  1286
14.195  1278
14.1975  1274
14.2  1267
14.2025  1286
14.205  1282
14.2075  1282
14.21  1282
14.2125  1286
14.215  1290
14.2175  1282
14.22  1274
14.2225  1278
14.225  1267
14.2275  1298
14.23  1282
14.2325  1282
14.235  1278
14.2375  1282
14.24  1271
14.2425  1271
14.245  1274
14.2475  1290
14.25  1271
14.2525  1286
14.255  1274
14.2575  1278
14.26  1274
14.2625  1282
14.265  1290
14.2675  1282
14.27  1263
14.2725  1286
14.275  1282
14.2775  1274
14.28  1282
14.2825  1282
14.285  1282
14.2875  1282
14.29  1294
14.2925  1278
14.295  1271
14.2975  1282
14.3  1282
14.3025  1278
14.305  1290
14.3075  1286
14.31  1278
14.3125  1282
14.315  1286
14.3175  1282
14.32  1282
14.3225  1286
14.325  1274
14.3275  1274
14.33  1282
14.3325  1278
14.335  1290
14.3375  1278
14.34  1274
14.3425  1282
14.345  1278
14.3475  1294
14.35  1282
14.3525  1278
14.355  1294
14.3575  1290
14.36  1274
14.3625  1286
14.365  1282
14.3675  1286
14.37  1282
14.3725  1274
14.375  1274
14.3775  1286
14.38  1278
14.3825  1290
14.385  1278
14.3875  1271
14.39  1282
14.3925  1274
14.395  1271
14.3975  1278
14.4  1274
14.4025  1282
14.405  1274
14.4075  1278
14.41  1259
14.4125  1278
14.415  1282
14.4175  1274
14.42  1278
14.4225  1278
14.425  1271
14.4275  1278
14.43  1282
14.4325  1282
14.435  1278
14.4375  1290
14.44  1282
14.4425  1286
14.445  1278
14.4475  1282
14.45  1278
14.4525  1267
14.455  1271
14.4575  1282
14.46  1278
14.4625  1274
14.465  1274
14.4675  1274
14.47  1278
14.4725  1290
14.475  1282
14.4775  1290
14.48  1282
14.4825  1286
14.485  1282
14.4875  1274
14.49  1286
14.4925  1274
14.495  1278
14.4975  1271
14.5  1274
14.5025  1278
14.505  1282
14.5075  1278
14.51  1282
14.5125  1282
14.515  1286
14.5175  1282
14.52  1282
14.5225  1278
14.525  1286
14.5275  1274
14.53  1282
14.5325  1278
14.535  1274
14.5375  1286
14.54  1282
14.5425  1278
14.545  1278
14.5475  1290
14.55  1286
14.5525  1286
14.555  1278
14.5575  1282
14.56  1278
14.5625  1267
14.565  1274
14.5675  1271
14.57  1286
14.5725  1278
14.575  1278
14.5775  1278
14.58  1282
14.5825  1286
14.585  1282
14.5875  1278
14.59  1274
14.5925  1278
14.595  1290
14.5975  1286
14.6  1286
14.6025  1282
14.605  1274
14.6075  1274
14.61  1282
14.6125  1278
14.615  1282
14.6175  1278
14.62  1267
14.6225  1286
14.625  1278
14.6275  1274
14.63  1274
14.6325  1286
14.635  1278
14.6375  1286
14.64  1282
14.6425  1278
14.645  1267
14.6475  1274
14.65  1282
14.6525  1286
14.655  1286
14.6575  1294
14.66  1290
14.6625  1286
14.665  1278
14.6675  1286
14.67  1282
14.6725  1282
14.675  1286
14.6775  1286
14.68  1274
14.6825  1282
14.685  1274
14.6875  1278
14.69  1290
14.6925  1278
14.695  1271
14.6975  1278
14.7  1278
14.7025  1274
14.705  1274
14.7075  1282
14.71  1282
14.7125  1282
14.715  1274
14.7175  1278
14.72  0
14.7225  0
14.725  0
14.7275  0
14.73  0
14.7325  0
14.735  0
14.7375  0
14.74  0
14.7425  0
14.745  0
14.7475  0
14.75  0
14.7525  0
14.755  0
14.7575  0
14.76  0
14.7625  0
14.765  0
14.7675  0
14.77  0
14.7725  0
14.775  0
14.7775  0
14.78  0
14.7825  0
14.785  0
14.7875  0
14.79  0
14.7925  0
14.795  0
14.7975  0
14.8  0
14.8025  0
14.805  0
14.8075  0
14.81  0
14.8125  0
14.815  0
14.8175  0
14.82  0
14.8225  0
14.825  0
14.8275  0
14.83  0
14.8325  0
14.835  0
14.8375  0
14.84  0
14.8425  0
14.845  0
14.8475  0
14.85  0
14.8525  0
14.855  0
14.8575  0
14.86  0
14.8625  0
14.865  0
14.8675  0
14.87  0
14.8725  0
14.875  0
14.8775  0
14.88  0
14.8825  0
14.885  0
14.8875  0
14.89  0
14.8925  0
14.895  0
14.8975  0
14.9  0
14.9025  0
14.905  0
14.9075  0
14.91  0
14.9125  0
14.915  0
14.9175  0
14.92  0
14.9225  0
14.925  0
14.9275  0
14.93  0
14.9325  0
14.935  0
14.9375  0
14.94  0
14.9425  0
14.945  0
14.9475  0
14.95  0
14.9525  0
14.955  0
14.9575  0
14.96  0
14.9625  0
14.965  0
14.9675  0
14.97  0
14.9725  0
14.975  0
14.9775  0
14.98  0
14.9825  0
14.985  0
14.9875  0
14.99  0
14.9925  0
14.995  0
14.9975  0
15  0
15.0025  0
15.005  0
15.0075  0
15.01  0
15.0125  0
15.015  0
15.0175  0
15.02  0
15.0225  0
15.025  0
15.0275  0
15.03  0
15.0325  0
15.035  0
15.0375  0
15.04  0
15.0425  0
15.045  0
15.0475  0
15.05  0
15.0525  0
15.055  0
15.0575  0
15.06  0
15.0625  0
15.065  0
15.0675  0
15.07  0
15.0725  0
15.075  0
15.0775  0
15.08  0
15.0825  0
15.085  0
15.0875  0
15.09  0
15.0925  0
15.095  0
15.0975  0
15.1  0
15.1025  0
15.105  0
15.1075  0
15.11  0
15.1125  0
15.115  0
15.1175  0
15.12  0
15.1225  0
15.125  0
15.1275  0
15.13  0
15.1325  0
15.135  0
15.1375  0
15.14  0
15.1425  0
15.145  0
15.1475  0
15.15  0
15.1525  0
15.155  0
15.1575  0
15.16  0
15.1625  0
15.165  0
15.1675  0
15.17  0
15.1725  0
15.175  0
15.1775  0
15.18  0
15.1825  0
15.185  0
15.1875  0
15.19  0
15.1925  0
15.195  0
15.1975  0
15.2  0
15.2025  0
15.205  0
15.2075  0
15.21  0
15.2125  0
15.215  0
15.2175  0
15.22  0
15.2225  0
15.225  0
15.2275  0
15.23  0
15.2325  0
15.235  0
15.2375  0
15.24  0
15.2425  0
15.245  0
15.2475  0
15.25  0
15.2525  0
15.255  0
15.2575  0
15.26  0
15.2625  0
15.265  0
15.2675  0
15.27  0
15.2725  0
15.275  0
15.2775  0
15.28  0
15.2825  0
15.285  0
15.2875  0
15.29  0
15.2925  0
15.295  0
15.2975  0
15.3  0
15.3025  0
15.305  0
15.3075  0
15.31  0
15.3125  0
15.315  0
15.3175  0
15.32  0
15.3225  0
15.325  0
15.3275  0
15.33  0
15.3325  0
15.335  0
15.3375  0
15.34  0
15.3425  0
15.345  0
15.3475  0
15.35  0
15.3525  0
15.355  0
15.3575  0
15.36  1290
15.3625  1278
15.365  1286
15.3675  1274
15.37  1274
15.3725  1274
15.375  1282
15.3775  1274
15.38  1286
15.3825  1282
15.385  1274
15.3875  1286
15.39  1282
15.3925  1274
15.395  1286
15.3975  1274
15.4  1286
15.4025  1274
15.405  1286
15.4075  1290
15.41  1274
15.4125  1271
15.415  1274
15.4175  1274
15.42  1278
15.4225  1286
15.425  1282
15.4275  1274
15.43  1282
15.4325  1286
15.435  1286
15.4375  1286
15.44  1282
15.4425  1278
15.445  1290
15.4475  1286
15.45  1278
15.4525  1282
15.455  1274
15.4575  1282
15.46  1282
15.4625  1290
15.465  1274
15.4675  1278
15.47  1286
15.4725  1286
15.475  1278
15.4775  1274
15.48  1282
15.4825  1278
15.485  1271
15.4875  1282
15.49  1282
15.4925  1286
15.495  1282
15.4975  1278
15.5  1282
15.5025  1290
15.505  1290
15.5075  1282
15.51  1274
15.5125  1286
15.515  1282
15.5175  1271
15.52  1271
15.5225  1286
15.525  1278
15.5275  1282
15.53  1286
15.5325  1282
15.535  1278
15.5375  1274
15.54  1286
15.5425  1286
15.545  1282
15.5475  1278
15.55  1271
15.5525  1282
15.555  1282
15.5575  1278
15.56  1278
15.5625  1274
15.565  1286
15.5675  1274
15.57  1274
15.5725  1282
15.575  1286
15.5775  1278
15.58  1282
15.5825  1274
15.585  1286
15.5875  1278
15.59  1286
15.5925  1278
15.595  1282
15.5975  1294
15.6  1278
15.6025  1278
15.605  1278
15.6075  1286
15.61  1274
15.6125  1282
15.615  1271
15.6175  1274
15.62  1286
15.6225  1278
15.625  1286
15.6275  1274
15.63  1282
15.6325  1282
15.635  1282
15.6375  1278
15.64  1286
15.6425  1282
15.645  1278
15.6475  1271
15.65  1282
15.6525  1282
15.655  1286
15.6575  1282
15.66  1282
15.6625  1282
15.665  1271
15.6675  1298
15.67  1282
15.6725  1282
15.675  1278
15.6775  1278
15.68  1282
15.6825  1282
15.685  1271
15.6875  1286
15.69  1278
15.6925  1282
15.695  1278
15.6975  1282
15.7  1278
15.7025  1294
15.705  1286
15.7075  1282
15.71  1278
15.7125  1274
15.715  1282
15.7175  1282
15.72  1278
15.7225  1278
15.725  1282
15.7275  1286
15.73  1282
15.7325  1271
15.735  1294
15.7375  1282
15.74  1278
15.7425  1282
15.745  1282
15.7475  1282
15.75  1282
15.7525  1282
15.755  1278
15.7575  1274
15.76  1290
15.7625  1274
15.765  1278
15.7675  1274
15.77  1274
15.7725  1282
15.775  1282
15.7775  1294
15.78  1286
15.7825  1286
15.785  1274
15.7875  1286
15.79  1282
15.7925  1282
15.795  1282
15.7975  1274
15.8  1282
15.8025  1274
15.805  1286
15.8075  1282
15.81  1274
15.8125  1286
15.815  1274
15.8175  1282
15.82  1278
15.8225  1274
15.825  1282
15.8275  1271
15.83  1282
15.8325  1290
15.835  1278
15.8375  1282
15.84  1282
15.8425  1267
15.845  1282
15.8475  1282
15.85  1278
15.8525  1282
15.855  1274
15.8575  1282
15.86  1282
15.8625  1274
15.865  1290
15.8675  1282
15.87  1286
15.8725  1282
15.875  1286
15.8775  1278
15.88  1282
15.8825  1290
15.885  1282
15.8875  1282
15.89  1278
15.8925  1282
15.895  1286
15.8975  1282
15.9  1278
15.9025  1271
15.905  1290
15.9075  1278
15.91  1286
15.9125  1278
15.915  1278
15.9175  1271
15.92  1286
15.9225  1271
15.925  1282
15.9275  1282
15.93  1282
15.9325  1271
15.935  1290
15.9375  1274
15.94  1282
15.9425  1278
15.945  1282
15.9475  1278
15.95  1274
15.9525  1282
15.955  1282
15.9575  1278
15.96  1286
15.9625  1274
15.965  1282
15.9675  1274
15.97  1278
15.9725  1282
15.975  1278
15.9775  1282
15.98  1274
15.9825  1290
15.985  1282
15.9875  1274
15.99  1274
15.9925  1286
15.995  1274
15.9975  1298
16  0
16.0025  0
16.005  0
16.0075  0
16.01  0
16.0125  0
16.015  0
16.0175  0
16.02  0
16.0225  0
16.025  0
16.0275  0
16.03  0
16.0325  0
16.035  0
16.0375  0
16.04  0
16.0425  0
16.045  0
16.0475  0
16.05  0
16.0525  0
16.055  0
16.0575  0
16.06  0
16.0625  0
16.065  0
16.0675  0
16.07  0
16.0725  0
16.075  0
16.0775  0
16.08  0
16.0825  0
16.085  0
16.0875  0
16.09  0
16.0925  0
16.095  0
16.0975  0
16.1  0
16.1025  0
16.105  0
16.1075  0
16.11  0
16.1125  0
16.115  0
16.1175  0
16.12  0
16.1225  0
16.125  0
16.1275  0
16.13  0
16.1325  0
16.135  0
16.1375  0
16.14  0
16.1425  0
16.145  0
16.1475  0
16.15  0
16.1525  0
16.155  0
16.1575  0
16.16  0
16.1625  0
16.165  0
16.1675  0
16.17  0
16.1725  0
16.175  0
16.1775  0
16.18  0
16.1825  0
16.185  0
16.1875  0
16.19  0
16.1925  0
16.195  0
16.1975  0
16.2  0
16.2025  0
16.205  0
16.2075  0
16.21  0
16.2125  0
16.215  0
16.2175  0
16.22  0
16.2225  0
16.225  0
16.2275  0
16.23  0
16.2325  0
16.235  0
16.2375  0
16.24  0
16.2425  0
16.245  0
16.2475  0
16.25  0
16.2525  0
16.255  0
16.2575  0
16.26  0
16.2625  0
16.265  0
16.2675  0
16.27  0
16.2725  0
16.275  0
16.2775  0
16.28  0
16.2825  0
16.285  0
16.2875  0
16.29  0
16.2925  0
16.295  0
16.2975  0
16.3  0
16.3025  0
16.305  0
16.3075  0
16.31  0
16.3125  0
16.315  0
16.3175  0
16.32  0
16.3225  0
16.325  0
16.3275  0
16.33  0
16.3325  0
16.335  0
16.3375  0
16.34  0
16.3425  0
16.345  0
16.3475  0
16.35  0
16.3525  0
16.355  0
16.3575  0
16.36  0
16.3625  0
16.365  0
16.3675  0
16.37  0
16.3725  0
16.375  0
16.3775  0
16.38  0
16.3825  0
16.385  0
16.3875  0
16.39  0
16.3925  0
16.395  0
16.3975  0
16.4  0
16.4025  0
16.405  0
16.4075  0
16.41  0
16.4125  0
16.415  0
16.4175  0
16.42  0
16.4225  0
16.425  0
16.4275  0
16.43  0
16.4325  0
16.435  0
16.4375  0
16.44  0
16.4425  0
16.445  0
16.4475  0
16.45  0
16.4525  0
16.455  0
16.4575  0
16.46  0
16.4625  0
16.465  0
16.4675  0
16.47  0
16.4725  0
16.475  0
16.4775  0
16.48  0
16.4825  0
16.485  0
16.4875  0
16.49  0
16.4925  0
16.495  0
16.4975  0
16.5  0
16.5025  0
16.505  0
16.5075  0
16.51  0
16.5125  0
16.515  0
16.5175  0
16.52  0
16.5225  0
16.525  0
16.5275  0
16.53  0
16.5325  0
16.535  0
16.5375  0
16.54  0
16.5425  0
16.545  0
16.5475  0
16.55  0
16.5525  0
16.555  0
16.5575  0
16.56  0
16.5625  0
16.565  0
16.5675  0
16.57  0
16.5725  0
16.575  0
16.5775  0
16.58  0
16.5825  0
16.585  0
16.5875  0
16.59  0
16.5925  0
16.595  0
16.5975  0
16.6  0
16.6025  0
16.605  0
16.6075  0
16.61  0
16.6125  0
16.615  0
16.6175  0
16.62  0
16.6225  0
16.625  0
16.6275  0
16.63  0
16.6325  0
16.635  0
16.6375  0
16.64  1271
16.6425  1282
16.645  1267
16.6475  1274
16.65  1286
16.6525  1286
16.655  1278
16.6575  1271
16.66  1274
16.6625  1286
16.665  1274
16.6675  1274
16.67  1278
16.6725  1286
16.675  1282
16.6775  1274
16.68  1278
16.6825  1282
16.685  1278
16.6875  1290
16.69  1271
16.6925  1286
16.695  1282
16.6975  1286
16.7  1290
16.7025  1286
16.705  1286
16.7075  1274
16.71  1282
16.7125  1278
16.715  1278
16.7175  1282
16.72  1282
16.7225  1282
16.725  1278
16.7275  1278
16.73  1278
16.7325  1278
16.735  1282
16.7375  1282
16.74  1263
16.7425  1286
16.745  1274
16.7475  1282
16.75  1271
16.7525  1286
16.755  1274
16.7575  1286
16.76  1271
16.7625  1278
16.765  1274
16.7675  1278
16.77  1286
16.7725  1282
16.775  1282
16.7775  1271
16.78  1282
16.7825  1286
16.785  1286
16.7875  1282
16.79  1286
16.7925  1278
16.795  1282
16.7975  1286
16.8  1282
16.8025  1278
16.805  1290
16.8075  1274
16.81  1278
16.8125  1278
16.815  1274
16.8175  1271
16.82  1286
16.8225  1282
16.825  1282
16.8275  1274
16.83  1282
16.8325  1278
16.835  1294
16.8375  1274
16.84  1274
16.8425  1278
16.845  1278
16.8475  1282
16.85  1271
16.8525  1286
16.855  1267
16.8575  1274
16.86  1286
16.8625  1286
16.865  1286
16.8675  1278
16.87  1278
16.8725  1278
16.875  1282
16.8775  1282
16.88  1286
16.8825  1278
16.885  1286
16.8875  1278
16.89  1278
16.8925  1274
16.895  1278
16.8975  1278
16.9  1282
16.9025  1282
16.905  1278
16.9075  1286
16.91  1278
16.9125  1286
16.915  1278
16.9175  1286
16.92  1282
16.9225  1282
16.925  1271
16.9275  1278
16.93  1274
16.9325  1286
16.935  1274
16.9375  1282
16.94  1286
16.9425  1282
16.945  1286
16.9475  1286
16.95  1271
16.9525  1282
16.955  1278
16.9575  1290
16.96  1282
16.9625  1271
16.965  1282
16.9675  1267
16.97  1286
16.9725  1278
16.975  1271
16.9775  1271
16.98  1274
16.9825  1290
16.985  1278
16.9875  1274
16.99  1282
16.9925  1282
16.995  1278
16.9975  1286
17  1271
17.0025  1286
17.005  1290
17.0075  1274
17.01  1286
17.0125  1278
17.015  1278
17.0175  1290
17.02  1290
17.0225  1290
17.025  1286
17.0275  1274
17.03  1282
17.0325  1290
17.035  1282
17.0375  1274
17.04  1286
17.0425  1298
17.045  1271
17.0475  1286
17.05  1286
17.0525  1282
17.055  1286
17.0575  1282
17.06  1282
17.0625  1286
17.065  1282
17.0675  1282
17.07  1282
17.0725  1274
17.075  1278
17.0775  1294
17.08  1286
17.0825  1282
17.085  1282
17.0875  1286
17.09  1274
17.0925  1271
17.095  1290
17.0975  1278
17.1  1286
17.1025  1290
17.105  1294
17.1075  1282
17.11  1282
17.1125  1278
17.115  1274
17.1175  1282
17.12  1271
17.1225  1278
17.125  1278
17.1275  1274
17.13  1286
17.1325  1274
17.135  1274
17.1375  1278
17.14  1282
17.1425  1282
17.145  1290
17.1475  1286
17.15  1271
17.1525  1282
17.155  1278
17.1575  1274
17.16  1278
17.1625  1271
17.165  1294
17.1675  1282
17.17  1294
17.1725  1278
17.175  1282
17.1775  1286
17.18  1286
17.1825  1286
17.185  1286
17.1875  1286
17.19  1282
17.1925  1278
17.195  1282
17.1975  1282
17.2  1282
17.2025  1282
17.205  1274
17.2075  1290
17.21  1282
17.2125  1278
17.215  1282
17.2175  1278
17.22  1278
17.2225  1278
17.225  1278
17.2275  1282
17.23  1282
17.2325  1290
17.235  1274
17.2375  1278
17.24  1278
17.2425  1286
17.245  1278
17.2475  1286
17.25  1278
17.2525  1290
17.255  1278
17.2575  1278
17.26  1282
17.2625  1282
17.265  1286
17.2675  1278
17.27  1282
17.2725  1286
17.275  1282
17.2775  1286
17.28  0
17.2825  0
17.285  0
17.2875  0
17.29  0
17.2925  0
17.295  0
17.2975  0
17.3  0
17.3025  0
17.305  0
17.3075  0
17.31  0
17.3125  0
17.315  0
17.3175  0
17.32  0
17.3225  0
17.325  0
17.3275  0
17.33  0
17.3325  0
17.335  0
17.3375  0
17.34  0
17.3425  0
17.345  0
17.3475  0
17.35  0
17.3525  0
17.355  0
17.3575  0
17.36  0
17.3625  0
17.365  0
17.3675  0
17.37  0
17.3725  0
17.375  0
17.3775  0
17.38  0
17.3825  0
17.385  0
17.3875  0
17.39  0
17.3925  0
17.395  0
17.3975  0
17.4  0
17.4025  0
17.405  0
17.4075  0
17.41  0
17.4125  0
17.415  0
17.4175  0
17.42  0
17.4225  0
17.425  0
17.4275  0
17.43  0
17.4325  0
17.435  0
17.4375  0
17.44  0
17.4425  0
17.445  0
17.4475  0
17.45  0
17.4525  0
17.455  0
17.4575  0
17.46  0
17.4625  0
17.465  0
17.4675  0
17.47  0
17.4725  0
17.475  0
17.4775  0
17.48  0
17.4825  0
17.485  0
17.4875  0
17.49  0
17.4925  0
17.495  0
17.4975  0
17.5  0
17.5025  0
17.505  0
17.5075  0
17.51  0
17.5125  0
17.515  0
17.5175  0
17.52  0
17.5225  0
17.525  0
17.5275  0
17.53  0
17.5325  0
17.535  0
17.5375  0
17.54  0
17.5425  0
17.545  0
17.5475  0
17.55  0
17.5525  0
17.555  0
17.5575  0
17.56  0
17.5625  0
17.565  0
17.5675  0
17.57  0
17.5725  0
17.575  0
17.5775  0
17.58  0
17.5825  0
17.585  0
17.5875  0
17.59  0
17.5925  0
17.595  0
17.5975  0
17.6  0
17.6025  0
17.605  0
17.6075  0
17.61  0
17.6125  0
17.615  0
17.6175  0
17.62  0
17.6225  0
17.625  0
17.6275  0
17.63  0
17.6325  0
17.635  0
17.6375  0
17.64  0
17.6425  0
17.645  0
17.6475  0
17.65  0
17.6525  0
17.655  0
17.6575  0
17.66  0
17.6625  0
17.665  0
17.6675  0
17.67  0
17.6725  0
17.675  0
17.6775  0
17.68  0
17.6825  0
17.685  0
17.6875  0
17.69  0
17.6925  0
17.695  0
17.6975  0
17.7  0
17.7025  0
17.705  0
17.7075  0
17.71  0
17.7125  0
17.715  0
17.7175  0
17.72  0
17.7225  0
17.725  0
17.7275  0
17.73  0
17.7325  0
17.735  0
17.7375  0
17.74  0
17.7425  0
17.745  0
17.7475  0
17.75  0
17.7525  0
17.755  0
17.7575  0
17.76  0
17.7625  0
17.765  0
17.7675  0
17.77  0
17.7725  0
17.775  0
17.7775  0
17.78  0
17.7825  0
17.785  0
17.7875  0
17.79  0
17.7925  0
17.795  0
17.7975  0
17.8  0
17.8025  0
17.805  0
17.8075  0
17.81  0
17.8125  0
17.815  0
17.8175  0
17.82  0
17.8225  0
17.825  0
17.8275  0
17.83  0
17.8325  0
17.835  0
17.8375  0
17.84  0
17.8425  0
17.845  0
17.8475  0
17.85  0
17.8525  0
17.855  0
17.8575  0
17.86  0
17.8625  0
17.865  0
17.8675  0
17.87  0
17.8725  0
17.875  0
17.8775  0
17.88  0
17.8825  0
17.885  0
17.8875  0
17.89  0
17.8925  0
17.895  0
17.8975  0
17.9  0
17.9025  0
17.905  0
17.9075  0
17.91  0
17.9125  0
17.915  0
17.9175  0
17.92  1274
17.9225  1271
17.925  1282
17.9275  1282
17.93  1286
17.9325  1286
17.935  1286
17.9375  1278
17.94  1274
17.9425  1274
17.945  1274
17.9475  1274
17.95  1282
17.9525  1282
17.955  1286
17.9575  1282
17.96  1286
17.9625  1294
17.965  1278
17.9675  1278
17.97  1282
17.9725  1278
17.975  1274
17.9775  1274
17.98  1278
17.9825  1286
17.985  1282
17.9875  1274
17.99  1271
17.9925  1267
17.995  1282
17.9975  1278
18  1286
18.0025  1267
18.005  1278
18.0075  1274
18.01  1278
18.0125  1278
18.015  1274
18.0175  1278
18.02  1282
18.0225  1278
18.025  1271
18.0275  1267
18.03  1282
18.0325  1282
18.035  1294
18.0375  1278
18.04  1282
18.0425  1274
18.045  1271
18.0475  1278
18.05  1282
18.0525  1274
18.055  1278
18.0575  1278
18.06  1290
18.0625  1271
18.065  1278
18.0675  1282
18.07  1286
18.0725  1278
18.075  1274
18.0775  1282
18.08  1282
18.0825  1274
18.085  1274
18.0875  1278
18.09  1282
18.0925  1274
18.095  1267
18.0975  1278
18.1  1274
18.1025  1282
18.105  1282
18.1075  1286
18.11  1290
18.1125  1274
18.115  1278
18.1175  1282
18.12  1274
18.1225  1278
18.125  1282
18.1275  1278
18.13  1290
18.1325  1290
18.135  1271
18.1375  1278
18.14  1282
18.1425  1282
18.145  1278
18.1475  1271
18.15  1290
18.1525  1286
18.155  1290
18.1575  1274
18.16  1278
18.1625  1274
18.165  1286
18.1675  1274
18.17  1282
18.1725  1282
18.175  1278
18.1775  1286
18.18  1286
18.1825  1274
18.185  1278
18.1875  1282
18.19  1282
18.1925  1278
18.195  1282
18.1975  1267
18.2  1271
18.2025  1278
18.205  1282
18.2075  1278
18.21  1282
18.2125  1290
18.215  1286
18.2175  1290
18.22  1290
18.2225  1282
18.225  1278
18.2275  1278
18.23  1294
18.2325  1286
18.235  1282
18.2375  1278
18.24  1274
18.2425  1282
18.245  1271
18.2475  1278
18.25  1274
18.2525  1290
18.255  1286
18.2575  1282
18.26  1267
18.2625  1282
18.265  1278
18.2675  1282
18.27  1278
18.2725  1282
18.275  1282
18.2775  1282
18.28  1290
18.2825  1274
18.285  1282
18.2875  1286
18.29  1290
18.2925  1274
18.295  1290
18.2975  1282
18.3  1278
18.3025  1282
18.305  1274
18.3075  1282
18.31  1271
18.3125  1290
18.315  1282
18.3175  1271
18.32  1282
18.3225  1286
18.325  1274
18.3275  1286
18.33  1286
18.3325  1267
18.335  1282
18.3375  1274
18.34  1290
18.3425  1278
18.345  1294
18.3475  1278
18.35  1278
18.3525  1286
18.355  1286
18.3575  1282
18.36  1282
18.3625  1282
18.365  1290
18.3675  1278
18.37  1282
18.3725  1286
18.375  1286
18.3775  1278
18.38  1271
18.3825  1282
18.385  1282
18.3875  1286
18.39  1282
18.3925  1298
18.395  1271
18.3975  1267
18.4  1271
18.4025  1274
18.405  1282
18.4075  1274
18.41  1282
18.4125  1274
18.415  1274
18.4175  1282
18.42  1271
18.4225  1278
18.425  1278
18.4275  1282
18.43  1282
18.4325  1278
18.435  1286
18.4375  1282
18.44  1278
18.4425  1286
18.445  1286
18.4475  1286
18.45  1286
18.4525  1294
18.455  1282
18.4575  1274
18.46  1274
18.4625  1274
18.465  1282
18.4675  1282
18.47  1290
18.4725  1278
18.475  1282
18.4775  1274
18.48  1282
18.4825  1271
18.485  1286
18.4875  1274
18.49  1286
18.4925  1274
18.495  1278
18.4975  1271
18.5  1286
18.5025  1278
18.505  1282
18.5075  1286
18.51  1282
18.5125  1282
18.515  1274
18.5175  1282
18.52  1282
18.5225  1286
18.525  1278
18.5275  1282
18.53  1282
18.5325  1282
18.535  1282
18.5375  1278
18.54  1274
18.5425  1274
18.545  1282
18.5475  1278
18.55  1278
18.5525  1282
18.555  1274
18.5575  1298
18.56  0
18.5625  0
18.565  0
18.5675  0
18.57  0
18.5725  0
18.575  0
18.5775  0
18.58  0
18.5825  0
18.585  0
18.5875  0
18.59  0
18.5925  0
18.595  0
18.5975  0
18.6  0
18.6025  0
18.605  0
18.6075  0
18.61  0
18.6125  0
18.615  0
18.6175  0
18.62  0
18.6225  0
18.625  0
18.6275  0
18.63  0
18.6325  0
18.635  0
18.6375  0
18.64  0
18.6425  0
18.645  0
18.6475  0
18.65  0
18.6525  0
18.655  0
18.6575  0
18.66  0
18.6625  0
18.665  0
18.6675  0
18.67  0
18.6725  0
18.675  0
18.6775  0
18.68  0
18.6825  0
18.685  0
18.6875  0
18.69  0
18.6925  0
18.695  0
18.6975  0
18.7  0
18.7025  0
18.705  0
18.7075  0
18.71  0
18.7125  0
18.715  0
18.7175  0
18.72  0
18.7225  0
18.725  0
18.7275  0
18.73  0
18.7325  0
18.735  0
18.7375  0
18.74  0
18.7425  0
18.745  0
18.7475  0
18.75  0
18.7525  0
18.755  0
18.7575  0
18.76  0
18.7625  0
18.765  0
18.7675  0
18.77  0
18.7725  0
18.775  0
18.7775  0
18.78  0
18.7825  0
18.785  0
18.7875  0
18.79  0
18.7925  0
18.795  0
18.7975  0
18.8  0
18.8025  0
18.805  0
18.8075  0
18.81  0
18.8125  0
18.815  0
18.8175  0
18.82  0
18.8225  0
18.825  0
18.8275  0
18.83  0
18.8325  0
18.835  0
18.8375  0
18.84  0
18.8425  0
18.845  0
18.8475  0
18.85  0
18.8525  0
18.855  0
18.8575  0
18.86  0
18.8625  0
18.865  0
18.8675  0
18.87  0
18.8725  0
18.875  0
18.8775  0
18.88  0
18.8825  0
18.885  0
18.8875  0
18.89  0
18.8925  0
18.895  0
18.8975  0
18.9  0
18.9025  0
18.905  0
18.9075  0
18.91  0
18.9125  0
18.915  0
18.9175  0
18.92  0
18.9225  0
18.925  0
18.9275  0
18.93  0
18.9325  0
18.935  0
18.9375  0
18.94  0
18.9425  0
18.945  0
18.9475  0
18.95  0
18.9525  0
18.955  0
18.9575  0
18.96  0
18.9625  0
18.965  0
18.9675  0
18.97  0
18.9725  0
18.975  0
18.9775  0
18.98  0
18.9825  0
18.985  0
18.9875  0
18.99  0
18.9925  0
18.995  0
18.9975  0
19  0
19.0025  0
19.005  0
19.0075  0
19.01  0
19.0125  0
19.015  0
19.0175  0
19.02  0
19.0225  0
19.025  0
19.0275  0
19.03  0
19.0325  0
19.035  0
19.0375  0
19.04  0
19.0425  0
19.045  0
19.0475  0
19.05  0
19.0525  0
19.055  0
19.0575  0
19.06  0
19.0625  0
19.065  0
19.0675  0
19.07  0
19.0725  0
19.075  0
19.0775  0
19.08  0
19.0825  0
19.085  0
19.0875  0
19.09  0
19.0925  0
19.095  0
19.0975  0
19.1  0
19.1025  0
19.105  0
19.1075  0
19.11  0
19.1125  0
19.115  0
19.1175  0
19.12  0
19.1225  0
19.125  0
19.1275  0
19.13  0
19.1325  0
19.135  0
19.1375  0
19.14  0
19.1425  0
19.145  0
19.1475  0
19.15  0
19.1525  0
19.155  0
19.1575  0
19.16  0
19.1625  0
19.165  0
19.1675  0
19.17  0
19.1725  0
19.175  0
19.1775  0
19.18  0
19.1825  0
19.185  0
19.1875  0
19.19  0
19.1925  0
19.195  0
19.1975  0
19.2  1294
19.2025  1274
19.205  1282
19.2075  1278
19.21  1274
19.2125  1274
19.215  1282
19.2175  1282
19.22  1278
19.2225  1278
19.225  1274
19.2275  1282
19.23  1263
19.2325  1282
19.235  1282
19.2375  1271
19.24  1286
19.2425  1278
19.245  1286
19.2475  1282
19.25  1290
19.2525  1290
19.255  1290
19.2575  1286
19.26  1286
19.2625  1271
19.265  1286
19.2675  1282
19.27  1290
19.2725  1278
19.275  1294
19.2775  1286
19.28  1282
19.2825  1278
19.285  1286
19.2875  1278
19.29  1282
19.2925  1282
19.295  1278
19.2975  1278
19.3  1271
19.3025  1267
19.305  1286
19.3075  1278
19.31  1282
19.3125  1286
19.315  1263
19.3175  1278
19.32  1302
19.3225  1274
19.325  1286
19.3275  1278
19.33  1282
19.3325  1278
19.335  1278
19.3375  1274
19.34  1267
19.3425  1263
19.345  1278
19.3475  1278
19.35  1274
19.3525  1282
19.355  1271
19.3575  1282
19.36  1274
19.3625  1263
19.365  1282
19.3675  1271
19.37  1282
19.3725  1286
19.375  1274
19.3775  1263
19.38  1286
19.3825  1282
19.385  1274
19.3875  1278
19.39  1274
19.3925  1286
19.395  1274
19.3975  1286
19.4  1282
19.4025  1278
19.405  1290
19.4075  1282
19.41  1278
19.4125  1282
19.415  1294
19.4175  1274
19.42  1282
19.4225  1274
19.425  1286
19.4275  1282
19.43  1278
19.4325  1286
19.435  1274
19.4375  1278
19.44  1274
19.4425  1282
19.445  1278
19.4475  1274
19.45  1282
19.4525  1290
19.455  1278
19.4575  1282
19.46  1286
19.4625  1282
19.465  1271
19.4675  1278
19.47  1282
19.4725  1274
19.475  1282
19.4775  1274
19.48  1278
19.4825  1271
19.485  1278
19.4875  1278
19.49  1282
19.4925  1294
19.495  1282
19.4975  1278
19.5  1290
19.5025  1282
19.505  1274
19.5075  1274
19.51  1278
19.5125  1282
19.515  1278
19.5175  1278
19.52  1278
19.5225  1278
19.525  1294
19.5275  1282
19.53  1282
19.5325  1263
19.535  1278
19.5375  1282
19.54  1282
19.5425  1282
19.545  1274
19.5475  1271
19.55  1278
19.5525  1267
19.555  1274
19.5575  1282
19.56  1274
19.5625  1274
19.565  1271
19.5675  1278
19.57  1286
19.5725  1271
19.575  1282
19.5775  1282
19.58  1278
19.5825  1278
19.585  1282
19.5875  1286
19.59  1282
19.5925  1286
19.595  1278
19.5975  1286
19.6  1274
19.6025  1278
19.605  1286
19.6075  1286
19.61  1278
19.6125  1274
19.615  1282
19.6175  1290
19.62  1282
19.6225  1290
19.625  1286
19.6275  1286
19.63  1282
19.6325  1282
19.635  1282
19.6375  1282
19.64  1274
19.6425  1278
19.645  1282
19.6475  1274
19.65  1271
19.6525  1282
19.655  1274
19.6575  1282
19.66  1286
19.6625  1286
19.665  1282
19.6675  1278
19.67  1278
19.6725  1278
19.675  1274
19.6775  1286
19.68  1278
19.6825  1274
19.685  1282
19.6875  1278
19.69  1274
19.6925  1274
19.695  1278
19.6975  1282
19.7  1286
19.7025  1286
19.705  1286
19.7075  1282
19.71  1282
19.7125  1267
19.715  1274
19.7175  1290
19.72  1267
19.7225  1274
19.725  1278
19.7275  1274
19.73  1286
19.7325  1286
19.735  1274
19.7375  1282
19.74  1286
19.7425  1278
19.745  1278
19.7475  1290
19.75  1274
19.7525  1290
19.755  1271
19.7575  1278
19.76  1286
19.7625  1282
19.765  1282
19.7675  1282
19.77  1294
19.7725  1271
19.775  1286
19.7775  1271
19.78  1286
19.7825  1290
19.785  1278
19.7875  1274
19.79  1286
19.7925  1282
19.795  1282
19.7975  1286
19.8  1278
19.8025  1282
19.805  1278
19.8075  1278
19.81  1282
19.8125  1274
19.815  1282
19.8175  1282
19.82  1274
19.8225  1274
19.825  1282
19.8275  1290
19.83  1274
19.8325  1282
19.835  1274
19.8375  1278
19.84  0
19.8425  0
19.845  0
19.8475  0
19.85  0
19.8525  0
19.855  0
19.8575  0
19.86  0
19.8625  0
19.865  0
19.8675  0
19.87  0
19.8725  0
19.875  0
19.8775  0
19.88  0
19.8825  0
19.885  0
19.8875  0
19.89  0
19.8925  0
19.895  0
19.8975  0
19.9  0
19.9025  0
19.905  0
19.9075  0
19.91  0
19.9125  0
19.915  0
19.9175  0
19.92  0
19.9225  0
19.925  0
19.9275  0
19.93  0
19.9325  0
19.935  0
19.9375  0
19.94  0
19.9425  0
19.945  0
19.9475  0
19.95  0
19.9525  0
19.955  0
19.9575  0
19.96  0
19.9625  0
19.965  0
19.9675  0
19.97  0
19.9725  0
19.975  0
19.9775  0
19.98  0
19.9825  0
19.985  0
19.9875  0
19.99  0
19.9925  0
19.995  0
19.9975  0
20  0
20.0025  0
20.005  0
20.0075  0
20.01  0
20.0125  0
20.015  0
20.0175  0
20.02  0
20.0225  0
20.025  0
20.0275  0
20.03  0
20.0325  0
20.035  0
20.0375  0
20.04  0
20.0425  0
20.045  0
20.0475  0
20.05  0
20.0525  0
20.055  0
20.0575  0
20.06  0
20.0625  0
20.065  0
20.0675  0
20.07  0
20.0725  0
20.075  0
20.0775  0
20.08  0
20.0825  0
20.085  0
20.0875  0
20.09  0
20.0925  0
20.095  0
20.0975  0
20.1  0
20.1025  0
20.105  0
20.1075  0
20.11  0
20.1125  0
20.115  0
20.1175  0
20.12  0
20.1225  0
20.125  0
20.1275  0
20.13  0
20.1325  0
20.135  0
20.1375  0
20.14  0
20.1425  0
20.145  0
20.1475  0
20.15  0
20.1525  0
20.155  0
20.1575  0
20.16  0
20.1625  0
20.165  0
20.1675  0
20.17  0
20.1725  0
20.175  0
20.1775  0
20.18  0
20.1825  0
20.185  0
20.1875  0
20.19  0
20.1925  0
20.195  0
20.1975  0
20.2  0
20.2025  0
20.205  0
20.2075  0
20.21  0
20.2125  0
20.215  0
20.2175  0
20.22  0
20.2225  0
20.225  0
20.2275  0
20.23  0
20.2325  0
20.235  0
20.2375  0
20.24  0
20.2425  0
20.245  0
20.2475  0
20.25  0
20.2525  0
20.255  0
20.2575  0
20.26  0
20.2625  0
20.265  0
20.2675  0
20.27  0
20.2725  0
20.275  0
20.2775  0
20.28  0
20.2825  0
20.285  0
20.2875  0
20.29  0
20.2925  0
20.295  0
20.2975  0
20.3  0
20.3025  0
20.305  0
20.3075  0
20.31  0
20.3125  0
20.315  0
20.3175  0
20.32  0
20.3225  0
20.325  0
20.3275  0
20.33  0
20.3325  0
20.335  0
20.3375  0
20.34  0
20.3425  0
20.345  0
20.3475  0
20.35  0
20.3525  0
20.355  0
20.3575  0
20.36  0
20.3625  0
20.365  0
20.3675  0
20.37  0
20.3725  0
20.375  0
20.3775  0
20.38  0
20.3825  0
20.385  0
20.3875  0
20.39  0
20.3925  0
20.395  0
20.3975  0
20.4  0
20.4025  0
20.405  0
20.4075  0
20.41  0
20.4125  0
20.415  0
20.4175  0
20.42  0
20.4225  0
20.425  0
20.4275  0
20.43  0
20.4325  0
20.435  0
20.4375  0
20.44  0
20.4425  0
20.445  0
20.4475  0
20.45  0
20.4525  0
20.455  0
20.4575  0
20.46  0
20.4625  0
20.465  0
20.4675  0
20.47  0
20.4725  0
20.475  0
20.4775  0
20.48  1290
20.4825  1294
20.485  1274
20.4875  1274
20.49  1282
20.4925  1278
20.495  1290
20.4975  1274
20.5  1278
20.5025  1282
20.505  1274
20.5075  1278
20.51  1286
20.5125  1290
20.515  1267
20.5175  1274
20.52  1267
20.5225  1278
20.525  1290
20.5275  1278
20.53  1282
20.5325  1282
20.535  1278
20.5375  1282
20.54  1286
20.5425  1271
20.545  1267
20.5475  1286
20.55  1282
20.5525  1274
20.555  1282
20.5575  1286
20.56  1274
20.5625  1286
20.565  1271
20.5675  1282
20.57  1282
20.5725  1286
20.575  1278
20.5775  1286
20.58  1274
20.5825  1274
20.585  1274
20.5875  1286
20.59  1278
20.5925  1282
20.595  1282
20.5975  1274
20.6  1274
20.6025  1274
20.605  1302
20.6075  1282
20.61  1282
20.6125  1290
20.615  1282
20.6175  1282
20.62  1282
20.6225  1278
20.625  1282
20.6275  1282
20.63  1282
20.6325  1271
20.635  1290
20.6375  1278
20.64  1278
20.6425  1286
20.645  1282
20.6475  1274
20.65  1274
20.6525  1290
20.655  1274
20.6575  1278
20.66  1286
20.6625  1282
20.665  1278
20.6675  1282
20.67  1274
20.6725  1286
20.675  1274
20.6775  1278
20.68  1274
20.6825  1278
20.685  1286
20.6875  1282
20.69  1282
20.6925  1282
20.695  1274
20.6975  1282
20.7  1286
20.7025  1282
20.705  1274
20.7075  1274
20.71  1290
20.7125  1286
20.715  1274
20.7175  1290
20.72  1290
20.7225  1278
20.725  1282
20.7275  1278
20.73  1278
20.7325  1271
20.735  1286
20.7375  1286
20.74  1282
20.7425  1282
20.745  1282
20.7475  1282
20.75  1282
20.7525  1286
20.755  1271
20.7575  1278
20.76  1290
20.7625  1274
20.765  1286
20.7675  1282
20.77  1278
20.7725  1278
20.775  1278
20.7775  1278
20.78  1278
20.7825  1286
20.785  1282
20.7875  1282
20.79  1286
20.7925  1282
20.795  1282
20.7975  1274
20.8  1282
20.8025  1278
20.805  1274
20.8075  1278
20.81  1278
20.8125  1282
20.815  1282
20.8175  1282
20.82  1267
20.8225  1282
20.825  1278
20.8275  1278
20.83  1271
20.8325  1278
20.835  1278
20.8375  1271
20.84  1282
20.8425  1278
20.845  1278
20.8475  1267
20.85  1282
20.8525  1274
20.855  1294
20.8575  1278
20.86  1282
20.8625  1294
20.865  1282
20.8675  1278
20.87  1282
20.8725  1286
20.875  1274
20.8775  1278
20.88  1286
20.8825  1278
20.885  1286
20.8875  1278
20.89  1271
20.8925  1282
20.895  1282
20.8975  1274
20.9  1274
20.9025  1286
20.905  1286
20.9075  1274
20.91  1278
20.9125  1286
20.915  1290
20.9175  1278
20.92  1294
20.9225  1278
20.925  1282
20.9275  1282
20.93  1274
20.9325  1282
20.935  1274
20.9375  1278
20.94  1294
20.9425  1290
20.945  1282
20.9475  1282
20.95  1282
20.9525  1274
20.955  1271
20.9575  1282
20.96  1278
20.9625  1278
20.965  1274
20.9675  1282
20.97  1286
20.9725  1267
20.975  1282
20.9775  1278
20.98  1286
20.9825  1278
20.985  1282
20.9875  1286
20.99  1278
20.9925  1282
20.995  1278
20.9975  1278
21  1286
21.0025  1286
21.005  1278
21.0075  1290
21.01  1282
21.0125  1282
21.015  1274
21.0175  1278
21.02  1286
21.0225  1282
21.025  1286
21.0275  1278
21.03  1282
21.0325  1282
21.035  1274
21.0375  1274
21.04  1278
21.0425  1286
21.045  1282
21.0475  1274
21.05  1278
21.0525  1278
21.055  1282
21.0575  1278
21.06  1282
21.0625  1274
21.065  1282
21.0675  1282
21.07  1282
21.0725  1282
21.075  1286
21.0775  1278
21.08  1286
21.0825  1282
21.085  1282
21.0875  1278
21.09  1286
21.0925  1282
21.095  1282
21.0975  1282
21.1  1278
21.1025  1278
21.105  1282
21.1075  1282
21.11  1274
21.1125  1278
21.115  1278
21.1175  1278
21.12  0
21.1225  0
21.125  0
21.1275  0
21.13  0
21.1325  0
21.135  0
21.1375  0
21.14  0
21.1425  0
21.145  0
21.1475  0
21.15  0
21.1525  0
21.155  0
21.1575  0
21.16  0
21.1625  0
21.165  0
21.1675  0
21.17  0
21.1725  0
21.175  0
21.1775  0
21.18  0
21.1825  0
21.185  0
21.1875  0
21.19  0
21.1925  0
21.195  0
21.1975  0
21.2  0
21.2025  0
21.205  0
21.2075  0
21.21  0
21.2125  0
21.215  0
21.2175  0
21.22  0
21.2225  0
21.225  0
21.2275  0
21.23  0
21.2325  0
21.235  0
21.2375  0
21.24  0
21.2425  0
21.245  0
21.2475  0
21.25  0
21.2525  0
21.255  0
21.2575  0
21.26  0
21.2625  0
21.265  0
21.2675  0
21.27  0
21.2725  0
21.275  0
21.2775  0
21.28  0
21.2825  0
21.285  0
21.2875  0
21.29  0
21.2925  0
21.295  0
21.2975  0
21.3  0
21.3025  0
21.305  0
21.3075  0
21.31  0
21.3125  0
21.315  0
21.3175  0
21.32  0
21.3225  0
21.325  0
21.3275  0
21.33  0
21.3325  0
21.335  0
21.3375  0
21.34  0
21.3425  0
21.345  0
21.3475  0
21.35  0
21.3525  0
21.355  0
21.3575  0
21.36  0
21.3625  0
21.365  0
21.3675  0
21.37  0
21.3725  0
21.375  0
21.3775  0
21.38  0
21.3825  0
21.385  0
21.3875  0
21.39  0
21.3925  0
21.395  0
21.3975  0
21.4  0
21.4025  0
21.405  0
21.4075  0
21.41  0
21.4125  0
21.415  0
21.4175  0
21.42  0
21.4225  0
21.425  0
21.4275  0
21.43  0
21.4325  0
21.435  0
21.4375  0
21.44  0
21.4425  0
21.445  0
21.4475  0
21.45  0
21.4525  0
21.455  0
21.4575  0
21.46  0
21.4625  0
21.465  0
21.4675  0
21.47  0
21.4725  0
21.475  0
21.4775  0
21.48  0
21.4825  0
21.485  0
21.4875  0
21.49  0
21.4925  0
21.495  0
21.4975  0
21.5  0
21.5025  0
21.505  0
21.5075  0
21.51  0
21.5125  0
21.515  0
21.5175  0
21.52  0
21.5225  0
21.525  0
21.5275  0
21.53  0
21.5325  0
21.535  0
21.5375  0
21.54  0
21.5425  0
21.545  0
21.5475  0
21.55  0
21.5525  0
21.555  0
21.5575  0
21.56  0
21.5625  0
21.565  0
21.5675  0
21.57  0
21.5725  0
21.575  0
21.5775  0
21.58  0
21.5825  0
21.585  0
21.5875  0
21.59  0
21.5925  0
21.595  0
21.5975  0
21.6  0
21.6025  0
21.605  0
21.6075  0
21.61  0
21.6125  0
21.615  0
21.6175  0
21.62  0
21.6225  0
21.625  0
21.6275  0
21.63  0
21.6325  0
21.635  0
21.6375  0
21.64  0
21.6425  0
21.645  0
21.6475  0
21.65  0
21.6525  0
21.655  0
21.6575  0
21.66  0
21.6625  0
21.665  0
21.6675  0
21.67  0
21.6725  0
21.675  0
21.6775  0
21.68  0
21.6825  0
21.685  0
21.6875  0
21.69  0
21.6925  0
21.695  0
21.6975  0
21.7  0
21.7025  0
21.705  0
21.7075  0
21.71  0
21.7125  0
21.715  0
21.7175  0
21.72  0
21.7225  0
21.725  0
21.7275  0
21.73  0
21.7325  0
21.735  0
21.7375  0
21.74  0
21.7425  0
21.745  0
21.7475  0
21.75  0
21.7525  0
21.755  0
21.7575  0
21.76  1282
21.7625  1271
21.765  1282
21.7675  1282
21.77  1278
21.7725  1271
21.775  1278
21.7775  1274
21.78  1274
21.7825  1286
21.785  1298
21.7875  1278
21.79  1278
21.7925  1282
21.795  1271
21.7975  1278
21.8  1290
21.8025  1282
21.805  1282
21.8075  1278
21.81  1282
21.8125  1282
21.815  1274
21.8175  1278
21.82  1278
21.8225  1267
21.825  1290
21.8275  1282
21.83  1286
21.8325  1286
21.835  1282
21.8375  1267
21.84  1282
21.8425  1274
21.845  1282
21.8475  1286
21.85  1278
21.8525  1278
21.855  1282
21.8575  1271
21.86  1274
21.8625  1290
21.865  1286
21.8675  1278
21.87  1282
21.8725  1278
21.875  1286
21.8775  1290
21.88  1278
21.8825  1286
21.885  1278
21.8875  1290
21.89  1278
21.8925  1286
21.895  1274
21.8975  1282
21.9  1274
21.9025  1278
21.905  1290
21.9075  1286
21.91  1286
21.9125  1271
21.915  1278
21.9175  1286
21.92  1290
21.9225  1282
21.925  1278
21.9275  1278
21.93  1278
21.9325  1274
21.935  1282
21.9375  1282
21.94  1274
21.9425  1286
21.945  1263
21.9475  1278
21.95  1286
21.9525  1271
21.955  1282
21.9575  1282
21.96  1286
21.9625  1282
21.965  1286
21.9675  1271
21.97  1278
21.9725  1282
21.975  1282
21.9775  1274
21.98  1274
21.9825  1282
21.985  1290
21.9875  1290
21.99  1286
21.9925  1282
21.995  1282
21.9975  1271
22  1294
22.0025  1278
22.005  1282
22.0075  1282
22.01  1274
22.0125  1274
22.015  1282
22.0175  1282
22.02  1294
22.0225  1286
22.025  1274
22.0275  1278
22.03  1271
22.0325  1286
22.035  1286
22.0375  1278
22.04  1286
22.0425  1286
22.045  1278
22.0475  1282
22.05  1282
22.0525  1282
22.055  1298
22.0575  1290
22.06  1282
22.0625  1282
22.065  1286
22.0675  1278
22.07  1274
22.0725  1286
22.075  1282
22.0775  1282
22.08  1278
22.0825  1274
22.085  1274
22.0875  1278
22.09  1274
22.0925  1278
22.095  1278
22.0975  1290
22.1  1278
22.1025  1290
22.105  1282
22.1075  1282
22.11  1274
22.1125  1282
22.115  1274
22.1175  1282
22.12  1282
22.1225  1286
22.125  1282
22.1275  1271
22.13  1278
22.1325  1282
22.135  1274
22.1375  1282
22.14  1274
22.1425  1278
22.145  1282
22.1475  1286
22.15  1274
22.1525  1271
22.155  1278
22.1575  1282
22.16  1278
22.1625  1274
22.165  1298
22.1675  1274
22.17  1282
22.1725  1294
22.175  1286
22.1775  1278
22.18  1286
22.1825  1278
22.185  1290
22.1875  1290
22.19  1282
22.1925  1286
22.195  1282
22.1975  1282
22.2  1290
22.2025  1271
22.205  1282
22.2075  1274
22.21  1278
22.2125  1286
22.215  1278
22.2175  1286
22.22  1282
22.2225  1282
22.225  1282
22.2275  1271
22.23  1290
22.2325  1271
22.235  1290
22.2375  1282
22.24  1282
22.2425  1267
22.245  1274
22.2475  1271
22.25  1282
22.2525  1274
22.255  1274
22.2575  1278
22.26  1282
22.2625  1282
22.265  1278
22.2675  1286
22.27  1282
22.2725  1290
22.275  1290
22.2775  1286
22.28  1278
22.2825  1278
22.285  1271
22.2875  1278
22.29  1282
22.2925  1282
22.295  1274
22.2975  1282
22.3  1274
22.3025  1278
22.305  1286
22.3075  1282
22.31  1286
22.3125  1274
22.315  1278
22.3175  1290
22.32  1282
22.3225  1278
22.325  1282
22.3275  1278
22.33  1274
22.3325  1282
22.335  1286
22.3375  1286
22.34  1278
22.3425  1274
22.345  1282
22.3475  1286
22.35  1286
22.3525  1282
22.355  1278
22.3575  1274
22.36  1290
22.3625  1282
22.365  1278
22.3675  1278
22.37  1282
22.3725  1278
22.375  1290
22.3775  1282
22.38  1282
22.3825  1278
22.385  1282
22.3875  1282
22.39  1278
22.3925  1286
22.395  1274
22.3975  1274
22.4  0
22.4025  0
22.405  0
22.4075  0
22.41  0
22.4125  0
22.415  0
22.4175  0
22.42  0
22.4225  0
22.425  0
22.4275  0
22.43  0
22.4325  0
22.435  0
22.4375  0
22.44  0
22.4425  0
22.445  0
22.4475  0
22.45  0
22.4525  0
22.455  0
22.4575  0
22.46  0
22.4625  0
22.465  0
22.4675  0
22.47  0
22.4725  0
22.475  0
22.4775  0
22.48  0
22.4825  0
22.485  0
22.4875  0
22.49  0
22.4925  0
22.495  0
22.4975  0
22.5  0
22.5025  0
22.505  0
22.5075  0
22.51  0
22.5125  0
22.515  0
22.5175  0
22.52  0
22.5225  0
22.525  0
22.5275  0
22.53  0
22.5325  0
22.535  0
22.5375  0
22.54  0
22.5425  0
22.545  0
22.5475  0
22.55  0
22.5525  0
22.555  0
22.5575  0
22.56  0
22.5625  0
22.565  0
22.5675  0
22.57  0
22.5725  0
22.575  0
22.5775  0
22.58  0
22.5825  0
22.585  0
22.5875  0
22.59  0
22.5925  0
22.595  0
22.5975  0
22.6  0
22.6025  0
22.605  0
22.6075  0
22.61  0
22.6125  0
22.615  0
22.6175  0
22.62  0
22.6225  0
22.625  0
22.6275  0
22.63  0
22.6325  0
22.635  0
22.6375  0
22.64  0
22.6425  0
22.645  0
22.6475  0
22.65  0
22.6525  0
22.655  0
22.6575  0
22.66  0
22.6625  0
22.665  0
22.6675  0
22.67  0
22.6725  0
22.675  0
22.6775  0
22.68  0
22.6825  0
22.685  0
22.6875  0
22.69  0
22.6925  0
22.695  0
22.6975  0
22.7  0
22.7025  0
22.705  0
22.7075  0
22.71  0
22.7125  0
22.715  0
22.7175  0
22.72  0
22.7225  0
22.725  0
22.7275  0
22.73  0
22.7325  0
22.735  0
22.7375  0
22.74  0
22.7425  0
22.745  0
22.7475  0
22.75  0
22.7525  0
22.755  0
22.7575  0
22.76  0
22.7625  0
22.765  0
22.7675  0
22.77  0
22.7725  0
22.775  0
22.7775  0
22.78  0
22.7825  0
22.785  0
22.7875  0
22.79  0
22.7925  0
22.795  0
22.7975  0
22.8  0
22.8025  0
22.805  0
22.8075  0
22.81  0
22.8125  0
22.815  0
22.8175  0
22.82  0
22.8225  0
22.825  0
22.8275  0
22.83  0
22.8325  0
22.835  0
22.8375  0
22.84  0
22.8425  0
22.845  0
22.8475  0
22.85  0
22.8525  0
22.855  0
22.8575  0
22.86  0
22.8625  0
22.865  0
22.8675  0
22.87  0
22.8725  0
22.875  0
22.8775  0
22.88  0
22.8825  0
22.885  0
22.8875  0
22.89  0
22.8925  0
22.895  0
22.8975  0
22.9  0
22.9025  0
22.905  0
22.9075  0
22.91  0
22.9125  0
22.915  0
22.9175  0
22.92  0
22.9225  0
22.925  0
22.9275  0
22.93  0
22.9325  0
22.935  0
22.9375  0
22.94  0
22.9425  0
22.945  0
22.9475  0
22.95  0
22.9525  0
22.955  0
22.9575  0
22.96  0
22.9625  0
22.965  0
22.9675  0
22.97  0
22.9725  0
22.975  0
22.9775  0
22.98  0
22.9825  0
22.985  0
22.9875  0
22.99  0
22.9925  0
22.995  0
22.9975  0
23  0
23.0025  0
23.005  0
23.0075  0
23.01  0
23.0125  0
23.015  0
23.0175  0
23.02  0
23.0225  0
23.025  0
23.0275  0
23.03  0
23.0325  0
23.035  0
23.0375  0
23.04  1290
23.0425  1286
23.045  1282
23.0475  1263
23.05  1278
23.0525  1278
23.055  1282
23.0575  1271
23.06  1267
23.0625  1278
23.065  1286
23.0675  1278
23.07  1286
23.0725  1286
23.075  1278
23.0775  1294
23.08  1282
23.0825  1282
23.085  1267
23.0875  1286
23.09  1278
23.0925  1282
23.095  1278
23.0975  1282
23.1  1282
23.1025  1282
23.105  1282
23.1075  1278
23.11  1274
23.1125  1290
23.115  1282
23.1175  1282
23.12  1274
23.1225  1282
23.125  1286
23.1275  1282
23.13  1278
23.1325  1282
23.135  1274
23.1375  1278
23.14  1282
23.1425  1290
23.145  1267
23.1475  1278
23.15  1290
23.1525  1282
23.155  1278
23.1575  1282
23.16  1278
23.1625  1282
23.165  1286
23.1675  1298
23.17  1274
23.1725  1274
23.175  1302
23.1775  1282
23.18  1278
23.1825  1286
23.185  1294
23.1875  1294
23.19  1278
23.1925  1286
23.195  1278
23.1975  1278
23.2  1282
23.2025  1294
23.205  1278
23.2075  1282
23.21  1278
23.2125  1274
23.215  1282
23.2175  1278
23.22  1271
23.2225  1271
23.225  1271
23.2275  1294
23.23  1294
23.2325  1274
23.235  1278
23.2375  1278
23.24  1282
23.2425  1282
23.245  1271
23.2475  1278
23.25  1271
23.2525  1286
23.255  1271
23.2575  1290
23.26  1282
23.2625  1263
23.265  1286
23.2675  1282
23.27  1278
23.2725  1282
23.275  1282
23.2775  1278
23.28  1278
23.2825  1278
23.285  1282
23.2875  1282
23.29  1274
23.2925  1278
23.295  1286
23.2975  1271
23.3  1294
23.3025  1282
23.305  1286
23.3075  1286
23.31  1282
23.3125  1274
23.315  1278
23.3175  1290
23.32  1282
23.3225  1294
23.325  1286
23.3275  1278
23.33  1278
23.3325  1271
23.335  1278
23.3375  1278
23.34  1282
23.3425  1278
23.345  1286
23.3475  1282
23.35  1278
23.3525  1274
23.355  1282
23.3575  1282
23.36  1290
23.3625  1290
23.365  1282
23.3675  1278
23.37  1278
23.3725  1286
23.375  1290
23.3775  1278
23.38  1267
23.3825  1274
23.385  1271
23.3875  1282
23.39  1278
23.3925  1294
23.395  1278
23.3975  1286
23.4  1282
23.4025  1282
23.405  1278
23.4075  1274
23.41  1286
23.4125  1286
23.415  1278
23.4175  1290
23.42  1286
23.4225  1286
23.425  1282
23.4275  1278
23.43  1282
23.4325  1282
23.435  1278
23.4375  1282
23.44  1282
23.4425  1282
23.445  1278
23.4475  1278
23.45  1282
23.4525  1282
23.455  1290
23.4575  1278
23.46  1282
23.4625  1282
23.465  1282
23.4675  1278
23.47  1290
23.4725  1282
23.475  1278
23.4775  1286
23.48  1271
23.4825  1282
23.485  1274
23.4875  1286
23.49  1282
23.4925  1286
23.495  1282
23.4975  1282
23.5  1274
23.5025  1278
23.505  1282
23.5075  1271
23.51  1278
23.5125  1282
23.515  1290
23.5175  1282
23.52  1271
23.5225  1267
23.525  1274
23.5275  1282
23.53  1278
23.5325  1278
23.535  1286
23.5375  1278
23.54  1271
23.5425  1278
23.545  1282
23.5475  1286
23.55  1282
23.5525  1271
23.555  1278
23.5575  1278
23.56  1286
23.5625  1278
23.565  1286
23.5675  1294
23.57  1282
23.5725  1278
23.575  1282
23.5775  1278
23.58  1278
23.5825  1290
23.585  1278
23.5875  1282
23.59  1282
23.5925  1274
23.595  1274
23.5975  1286
23.6  1282
23.6025  1282
23.605  1278
23.6075  1282
23.61  1290
23.6125  1274
23.615  1282
23.6175  1278
23.62  1282
23.6225  1278
23.625  1282
23.6275  1294
23.63  1286
23.6325  1278
23.635  1278
23.6375  1286
23.64  1278
23.6425  1282
23.645  1290
23.6475  1282
23.65  1274
23.6525  1278
23.655  1282
23.6575  1271
23.66  1282
23.6625  1286
23.665  1278
23.6675  1294
23.67  1274
23.6725  1286
23.675  1282
23.6775  1274
23.68  0
23.6825  0
23.685  0
23.6875  0
23.69  0
23.6925  0
23.695  0
23.6975  0
23.7  0
23.7025  0
23.705  0
23.7075  0
23.71  0
23.7125  0
23.715  0
23.7175  0
23.72  0
23.7225  0
23.725  0
23.7275  0
23.73  0
23.7325  0
23.735  0
23.7375  0
23.74  0
23.7425  0
23.745  0
23.7475  0
23.75  0
23.7525  0
23.755  0
23.7575  0
23.76  0
23.7625  0
23.765  0
23.7675  0
23.77  0
23.7725  0
23.775  0
23.7775  0
23.78  0
23.7825  0
23.785  0
23.7875  0
23.79  0
23.7925  0
23.795  0
23.7975  0
23.8  0
23.8025  0
23.805  0
23.8075  0
23.81  0
23.8125  0
23.815  0
23.8175  0
23.82  0
23.8225  0
23.825  0
23.8275  0
23.83  0
23.8325  0
23.835  0
23.8375  0
23.84  0
23.8425  0
23.845  0
23.8475  0
23.85  0
23.8525  0
23.855  0
23.8575  0
23.86  0
23.8625  0
23.865  0
23.8675  0
23.87  0
23.8725  0
23.875  0
23.8775  0
23.88  0
23.8825  0
23.885  0
23.8875  0
23.89  0
23.8925  0
23.895  0
23.8975  0
23.9  0
23.9025  0
23.905  0
23.9075  0
23.91  0
23.9125  0
23.915  0
23.9175  0
23.92  0
23.9225  0
23.925  0
23.9275  0
23.93  0
23.9325  0
23.935  0
23.9375  0
23.94  0
23.9425  0
23.945  0
23.9475  0
23.95  0
23.9525  0
23.955  0
23.9575  0
23.96  0
23.9625  0
23.965  0
23.9675  0
23.97  0
23.9725  0
23.975  0
23.9775  0
23.98  0
23.9825  0
23.985  0
23.9875  0
23.99  0
23.9925  0
23.995  0
23.9975  0
24  0
24.0025  0
24.005  0
24.0075  0
24.01  0
24.0125  0
24.015  0
24.0175  0
24.02  0
24.0225  0
24.025  0
24.0275  0
24.03  0
24.0325  0
24.035  0
24.0375  0
24.04  0
24.0425  0
24.045  0
24.0475  0
24.05  0
24.0525  0
24.055  0
24.0575  0
24.06  0
24.0625  0
24.065  0
24.0675  0
24.07  0
24.0725  0
24.075  0
24.0775  0
24.08  0
24.0825  0
24.085  0
24.0875  0
24.09  0
24.0925  0
24.095  0
24.0975  0
24.1  0
24.1025  0
24.105  0
24.1075  0
24.11  0
24.1125  0
24.115  0
24.1175  0
24.12  0
24.1225  0
24.125  0
24.1275  0
24.13  0
24.1325  0
24.135  0
24.1375  0
24.14  0
24.1425  0
24.145  0
24.1475  0
24.15  0
24.1525  0
24.155  0
24.1575  0
24.16  0
24.1625  0
24.165  0
24.1675  0
24.17  0
24.1725  0
24.175  0
24.1775  0
24.18  0
24.1825  0
24.185  0
24.1875  0
24.19  0
24.1925  0
24.195  0
24.1975  0
24.2  0
24.2025  0
24.205  0
24.2075  0
24.21  0
24.2125  0
24.215  0
24.2175  0
24.22  0
24.2225  0
24.225  0
24.2275  0
24.23  0
24.2325  0
24.235  0
24.2375  0
24.24  0
24.2425  0
24.245  0
24.2475  0
24.25  0
24.2525  0
24.255  0
24.2575  0
24.26  0
24.2625  0
24.265  0
24.2675  0
24.27  0
24.2725  0
24.275  0
24.2775  0
24.28  0
24.2825  0
24.285  0
24.2875  0
24.29  0
24.2925  0
24.295  0
24.2975  0
24.3  0
24.3025  0
24.305  0
24.3075  0
24.31  0
24.3125  0
24.315  0
24.3175  0
24.32  1286
24.3225  1286
24.325  1274
24.3275  1282
24.33  1278
24.3325  1286
24.335  1282
24.3375  1282
24.34  1274
24.3425  1286
24.345  1286
24.3475  1271
24.35  1286
24.3525  1282
24.355  1286
24.3575  1278
24.36  1282
24.3625  1286
24.365  1274
24.3675  1290
24.37  1290
24.3725  1274
24.375  1278
24.3775  1278
24.38  1278
24.3825  1282
24.385  1271
24.3875  1282
24.39  1271
24.3925  1274
24.395  1278
24.3975  1278
24.4  1274
24.4025  1278
24.405  1282
24.4075  1282
24.41  1278
24.4125  1282
24.415  1294
24.4175  1282
24.42  1278
24.4225  1282
24.425  1282
24.4275  1278
24.43  1274
24.4325  1282
24.435  1271
24.4375  1290
24.44  1286
24.4425  1290
24.445  1286
24.4475  1282
24.45  1271
24.4525  1278
24.455  1298
24.4575  1274
24.46  1282
24.4625  1274
24.465  1282
24.4675  1282
24.47  1282
24.4725  1278
24.475  1282
24.4775  1282
24.48  1302
24.4825  1282
24.485  1282
24.4875  1274
24.49  1274
24.4925  1282
24.495  1278
24.4975  1267
24.5  1286
24.5025  1282
24.505  1282
24.5075  1274
24.51  1282
24.5125  1286
24.515  1282
24.5175  1278
24.52  1278
24.5225  1278
24.525  1278
24.5275  1271
24.53  1278
24.5325  1282
24.535  1282
24.5375  1282
24.54  1274
24.5425  1298
24.545  1271
24.5475  1278
24.55  1286
24.5525  1290
24.555  1286
24.5575  1278
24.56  1294
24.5625  1278
24.565  1282
24.5675  1274
24.57  1282
24.5725  1274
24.575  1271
24.5775  1278
24.58  1286
24.5825  1278
24.585  1282
24.5875  1282
24.59  1286
24.5925  1278
24.595  1278
24.5975  1282
24.6  1278
24.6025  1290
24.605  1282
24.6075  1274
24.61  1286
24.6125  1290
24.615  1286
24.6175  1286
24.62  1274
24.6225  1282
24.625  1286
24.6275  1271
24.63  1282
24.6325  1278
24.635  1282
24.6375  1290
24.64  1271
24.6425  1286
24.645  1282
24.6475  1278
24.65  1271
24.6525  1286
24.655  1267
24.6575  1278
24.66  1278
24.6625  1290
24.665  1274
24.6675  1274
24.67  1282
24.6725  1286
24.675  1274
24.6775  1274
24.68  1282
24.6825  1282
24.685  1282
24.6875  1274
24.69  1278
24.6925  1278
24.695  1282
24.6975  1278
24.7  1282
24.7025  1274
24.705  1282
24.7075  1274
24.71  1278
24.7125  1282
24.715  1286
24.7175  1282
24.72  1274
24.7225  1274
24.725  1282
24.7275  1278
24.73  1286
24.7325  1290
24.735  1278
24.7375  1278
24.74  1278
24.7425  1286
24.745  1290
24.7475  1282
24.75  1278
24.7525  1290
24.755  1271
24.7575  1286
24.76  1290
24.7625  1271
24.765  1286
24.7675  1274
24.77  1274
24.7725  1278
24.775  1274
24.7775  1290
24.78  1290
24.7825  1282
24.785  1274
24.7875  1278
24.79  1282
24.7925  1286
24.795  1286
24.7975  1286
24.8  1282
24.8025  1278
24.805  1274
24.8075  1282
24.81  1278
24.8125  1278
24.815  1282
24.8175  1282
24.82  1271
24.8225  1274
24.825  1286
24.8275  1271
24.83  1278
24.8325  1282
24.835  1282
24.8375  1274
24.84  1278
24.8425  1274
24.845  1282
24.8475  1282
24.85  1286
24.8525  1282
24.855  1286
24.8575  1290
24.86  1282
24.8625  1286
24.865  1278
24.8675  1298
24.87  1274
24.8725  1278
24.875  1290
24.8775  1274
24.88  1274
24.8825  1294
24.885  1278
24.8875  1286
24.89  1290
24.8925  1282
24.895  1271
24.8975  1278
24.9  1271
24.9025  1286
24.905  1286
24.9075  1282
24.91  1282
24.9125  1282
24.915  1278
24.9175  1271
24.92  1274
24.9225  1274
24.925  1282
24.9275  1278
24.93  1286
24.9325  1278
24.935  1282
24.9375  1274
24.94  1278
24.9425  1274
24.945  1278
24.9475  1282
24.95  1290
24.9525  1278
24.955  1286
24.9575  1278
24.96  0
24.9625  0
24.965  0
24.9675  0
24.97  0
24.9725  0
24.975  0
24.9775  0
24.98  0
24.9825  0
24.985  0
24.9875  0
24.99  0
24.9925  0
24.995  0
24.9975  0
25  0
25.0025  0
25.005  0
25.0075  0
25.01  0
25.0125  0
25.015  0
25.0175  0
25.02  0
25.0225  0
25.025  0
25.0275  0
25.03  0
25.0325  0
25.035  0
25.0375  0
25.04  0
25.0425  0
25.045  0
25.0475  0
25.05  0
25.0525  0
25.055  0
25.0575  0
25.06  0
25.0625  0
25.065  0
25.0675  0
25.07  0
25.0725  0
25.075  0
25.0775  0
25.08  0
25.0825  0
25.085  0
25.0875  0
25.09  0
25.0925  0
25.095  0
25.0975  0
25.1  0
25.1025  0
25.105  0
25.1075  0
25.11  0
25.1125  0
25.115  0
25.1175  0
25.12  0
25.1225  0
25.125  0
25.1275  0
25.13  0
25.1325  0
25.135  0
25.1375  0
25.14  0
25.1425  0
25.145  0
25.1475  0
25.15  0
25.1525  0
25.155  0
25.1575  0
25.16  0
25.1625  0
25.165  0
25.1675  0
25.17  0
25.1725  0
25.175  0
25.1775  0
25.18  0
25.1825  0
25.185  0
25.1875  0
25.19  0
25.1925  0
25.195  0
25.1975  0
25.2  0
25.2025  0
25.205  0
25.2075  0
25.21  0
25.2125  0
25.215  0
25.2175  0
25.22  0
25.2225  0
25.225  0
25.2275  0
25.23  0
25.2325  0
25.235  0
25.2375  0
25.24  0
25.2425  0
25.245  0
25.2475  0
25.25  0
25.2525  0
25.255  0
25.2575  0
25.26  0
25.2625  0
25.265  0
25.2675  0
25.27  0
25.2725  0
25.275  0
25.2775  0
25.28  0
25.2825  0
25.285  0
25.2875  0
25.29  0
25.2925  0
25.295  0
25.2975  0
25.3  0
25.3025  0
25.305  0
25.3075  0
25.31  0
25.3125  0
25.315  0
25.3175  0
25.32  0
25.3225  0
25.325  0
25.3275  0
25.33  0
25.3325  0
25.335  0
25.3375  0
25.34  0
25.3425  0
25.345  0
25.3475  0
25.35  0
25.3525  0
25.355  0
25.3575  0
25.36  0
25.3625  0
25.365  0
25.3675  0
25.37  0
25.3725  0
25.375  0
25.3775  0
25.38  0
25.3825  0
25.385  0
25.3875  0
25.39  0
25.3925  0
25.395  0
25.3975  0
25.4  0
25.4025  0
25.405  0
25.4075  0
25.41  0
25.4125  0
25.415  0
25.4175  0
25.42  0
25.4225  0
25.425  0
25.4275  0
25.43  0
25.4325  0
25.435  0
25.4375  0
25.44  0
25.4425  0
25.445  0
25.4475  0
25.45  0
25.4525  0
25.455  0
25.4575  0
25.46  0
25.4625  0
25.465  0
25.4675  0
25.47  0
25.4725  0
25.475  0
25.4775  0
25.48  0
25.4825  0
25.485  0
25.4875  0
25.49  0
25.4925  0
25.495  0
25.4975  0
25.5  0
25.5025  0
25.505  0
25.5075  0
25.51  0
25.5125  0
25.515  0
25.5175  0
25.52  0
25.5225  0
25.525  0
25.5275  0
25.53  0
25.5325  0
25.535  0
25.5375  0
25.54  0
25.5425  0
25.545  0
25.5475  0
25.55  0
25.5525  0
25.555  0
25.5575  0
25.56  0
25.5625  0
25.565  0
25.5675  0
25.57  0
25.5725  0
25.575  0
25.5775  0
25.58  0
25.5825  0
25.585  0
25.5875  0
25.59  0
25.5925  0
25.595  0
25.5975  0
25.6  1282
25.6025  1278
25.605  1278
25.6075  1278
25.61  1267
25.6125  1267
25.615  1282
25.6175  1278
25.62  1274
25.6225  1278
25.625  1274
25.6275  1282
25.63  1286
25.6325  1282
25.635  1282
25.6375  1282
25.64  1282
25.6425  1286
25.645  1282
25.6475  1274
25.65  1286
25.6525  1282
25.655  1286
25.6575  1274
25.66  1274
25.6625  1286
25.665  1282
25.6675  1278
25.67  1282
25.6725  1286
25.675  1271
25.6775  1282
25.68  1274
25.6825  1278
25.685  1282
25.6875  1282
25.69  1278
25.6925  1274
25.695  1290
25.6975  1290
25.7  1286
25.7025  1286
25.705  1278
25.7075  1274
25.71  1282
25.7125  1282
25.715  1282
25.7175  1290
25.72  1286
25.7225  1282
25.725  1290
25.7275  1286
25.73  1278
25.7325  1274
25.735  1290
25.7375  1290
25.74  1278
25.7425  1282
25.745  1282
25.7475  1282
25.75  1278
25.7525  1278
25.755  1286
25.7575  1286
25.76  1286
25.7625  1286
25.765  1290
25.7675  1274
25.77  1278
25.7725  1286
25.775  1271
25.7775  1278
25.78  1278
25.7825  1282
25.785  1274
25.7875  1282
25.79  1286
25.7925  1282
25.795  1263
25.7975  1282
25.8  1282
25.8025  1290
25.805  1274
25.8075  1278
25.81  1282
25.8125  1271
25.815  1282
25.8175  1278
25.82  1286
25.8225  1274
25.825  1282
25.8275  1286
25.83  1274
25.8325  1294
25.835  1274
25.8375  1282
25.84  1274
25.8425  1282
25.845  1278
25.8475  1278
25.85  1278
25.8525  1286
25.855  1271
25.8575  1271
25.86  1286
25.8625  1286
25.865  1282
25.8675  1286
25.87  1286
25.8725  1286
25.875  1282
25.8775  1286
25.88  1282
25.8825  1282
25.885  1282
25.8875  1271
25.89  1282
25.8925  1282
25.895  1290
25.8975  1282
25.9  1274
25.9025  1278
25.905  1274
25.9075  1278
25.91  1282
25.9125  1278
25.915  1274
25.9175  1286
25.92  1290
25.9225  1274
25.925  1286
25.9275  1282
25.93  1282
25.9325  1267
25.935  1282
25.9375  1274
25.94  1282
25.9425  1278
25.945  1286
25.9475  1286
25.95  1282
25.9525  1278
25.955  1286
25.9575  1278
25.96  1282
25.9625  1294
25.965  1278
25.9675  1278
25.97  1286
25.9725  1278
25.975  1274
25.9775  1282
25.98  1282
25.9825  1271
25.985  1286
25.9875  1294
25.99  1282
25.9925  1286
25.995  1271
25.9975  1274
26  1282
26.0025  1274
26.005  1286
26.0075  1274
26.01  1282
26.0125  1294
26.015  1286
26.0175  1282
26.02  1282
26.0225  1282
26.025  1282
26.0275  1278
26.03  1278
26.0325  1278
26.035  1274
26.0375  1278
26.04  1282
26.0425  1278
26.045  1282
26.0475  1278
26.05  1286
26.0525  1282
26.055  1271
26.0575  1282
26.06  1278
26.0625  1278
26.065  1282
26.0675  1286
26.07  1274
26.0725  1274
26.075  1271
26.0775  1286
26.08  1282
26.0825  1274
26.085  1271
26.0875  1274
26.09  1267
26.0925  1274
26.095  1290
26.0975  1282
26.1  1282
26.1025  1282
26.105  1282
26.1075  1286
26.11  1278
26.1125  1278
26.115  1278
26.1175  1282
26.12  1282
26.1225  1278
26.125  1290
26.1275  1286
26.13  1274
26.1325  1271
26.135  1286
26.1375  1294
26.14  1290
26.1425  1282
26.145  1278
26.1475  1282
26.15  1286
26.1525  1286
26.155  1271
26.1575  1286
26.16  1286
26.1625  1282
26.165  1278
26.1675  1290
26.17  1286
26.1725  1274
26.175  1271
26.1775  1282
26.18  1274
26.1825  1286
26.185  1278
26.1875  1278
26.19  1290
26.1925  1286
26.195  1278
26.1975  1278
26.2  1274
26.2025  1282
26.205  1274
26.2075  1286
26.21  1282
26.2125  1278
26.215  1271
26.2175  1294
26.22  1278
26.2225  1278
26.225  1278
26.2275  1274
26.23  1286
26.2325  1278
26.235  1282
26.2375  1282
26.24  0
26.2425  0
26.245  0
26.2475  0
26.25  0
26.2525  0
26.255  0
26.2575  0
26.26  0
26.2625  0
26.265  0
26.2675  0
26.27  0
26.2725  0
26.275  0
26.2775  0
26.28  0
26.2825  0
26.285  0
26.2875  0
26.29  0
26.2925  0
26.295  0
26.2975  0
26.3  0
26.3025  0
26.305  0
26.3075  0
26.31  0
26.3125  0
26.315  0
26.3175  0
26.32  0
26.3225  0
26.325  0
26.3275  0
26.33  0
26.3325  0
26.335  0
26.3375  0
26.34  0
26.3425  0
26.345  0
26.3475  0
26.35  0
26.3525  0
26.355  0
26.3575  0
26.36  0
26.3625  0
26.365  0
26.3675  0
26.37  0
26.3725  0
26.375  0
26.3775  0
26.38  0
26.3825  0
26.385  0
26.3875  0
26.39  0
26.3925  0
26.395  0
26.3975  0
26.4  0
26.4025  0
26.405  0
26.4075  0
26.41  0
26.4125  0
26.415  0
26.4175  0
26.42  0
26.4225  0
26.425  0
26.4275  0
26.43  0
26.4325  0
26.435  0
26.4375  0
26.44  0
26.4425  0
26.445  0
26.4475  0
26.45  0
26.4525  0
26.455  0
26.4575  0
26.46  0
26.4625  0
26.465  0
26.4675  0
26.47  0
26.4725  0
26.475  0
26.4775  0
26.48  0
26.4825  0
26.485  0
26.4875  0
26.49  0
26.4925  0
26.495  0
26.4975  0
26.5  0
26.5025  0
26.505  0
26.5075  0
26.51  0
26.5125  0
26.515  0
26.5175  0
26.52  0
26.5225  0
26.525  0
26.5275  0
26.53  0
26.5325  0
26.535  0
26.5375  0
26.54  0
26.5425  0
26.545  0
26.5475  0
26.55  0
26.5525  0
26.555  0
26.5575  0
26.56  0
26.5625  0
26.565  0
26.5675  0
26.57  0
26.5725  0
26.575  0
26.5775  0
26.58  0
26.5825  0
26.585  0
26.5875  0
26.59  0
26.5925  0
26.595  0
26.5975  0
26.6  0
26.6025  0
26.605  0
26.6075  0
26.61  0
26.6125  0
26.615  0
26.6175  0
26.62  0
26.6225  0
26.625  0
26.6275  0
26.63  0
26.6325  0
26.635  0
26.6375  0
26.64  0
26.6425  0
26.645  0
26.6475  0
26.65  0
26.6525  0
26.655  0
26.6575  0
26.66  0
26.6625  0
26.665  0
26.6675  0
26.67  0
26.6725  0
26.675  0
26.6775  0
26.68  0
26.6825  0
26.685  0
26.6875  0
26.69  0
26.6925  0
26.695  0
26.6975  0
26.7  0
26.7025  0
26.705  0
26.7075  0
26.71  0
26.7125  0
26.715  0
26.7175  0
26.72  0
26.7225  0
26.725  0
26.7275  0
26.73  0
26.7325  0
26.735  0
26.7375  0
26.74  0
26.7425  0
26.745  0
26.7475  0
26.75  0
26.7525  0
26.755  0
26.7575  0
26.76  0
26.7625  0
26.765  0
26.7675  0
26.77  0
26.7725  0
26.775  0
26.7775  0
26.78  0
26.7825  0
26.785  0
26.7875  0
26.79  0
26.7925  0
26.795  0
26.7975  0
26.8  0
26.8025  0
26.805  0
26.8075  0
26.81  0
26.8125  0
26.815  0
26.8175  0
26.82  0
26.8225  0
26.825  0
26.8275  0
26.83  0
26.8325  0
26.835  0
26.8375  0
26.84  0
26.8425  0
26.845  0
26.8475  0
26.85  0
26.8525  0
26.855  0
26.8575  0
26.86  0
26.8625  0
26.865  0
26.8675  0
26.87  0
26.8725  0
26.875  0
26.8775  0
26.88  1278
26.8825  1271
26.885  1290
26.8875  1282
26.89  1278
26.8925  1286
26.895  1282
26.8975  1286
26.9  1259
26.9025  1278
26.905  1267
26.9075  1274
26.91  1274
26.9125  1274
26.915  1282
26.9175  1282
26.92  1282
26.9225  1282
26.925  1282
26.9275  1282
26.93  1282
26.9325  1274
26.935  1282
26.9375  1286
26.94  1290
26.9425  1286
26.945  1278
26.9475  1282
26.95  1286
26.9525  1282
26.955  1278
26.9575  1263
26.96  1278
26.9625  1286
26.965  1282
26.9675  1278
26.97  1274
26.9725  1290
26.975  1271
26.9775  1271
26.98  1274
26.9825  1286
26.985  1274
26.9875  1286
26.99  1271
26.9925  1286
26.995  1286
26.9975  1274
27  1286
27.0025  1286
27.005  1286
27.0075  1274
27.01  1274
27.0125  1271
27.015  1282
27.0175  1286
27.02  1267
27.0225  1282
27.025  1274
27.0275  1286
27.03  1278
27.0325  1282
27.035  1282
27.0375  1278
27.04  1278
27.0425  1282
27.045  1263
27.0475  1274
27.05  1282
27.0525  1278
27.055  1271
27.0575  1282
27.06  1282
27.0625  1282
27.065  1290
27.0675  1290
27.07  1278
27.0725  1278
27.075  1282
27.0775  1278
27.08  1282
27.0825  1282
27.085  1290
27.0875  1290
27.09  1282
27.0925  1286
27.095  1278
27.0975  1286
27.1  1282
27.1025  1286
27.105  1286
27.1075  1278
27.11  1267
27.1125  1282
27.115  1282
27.1175  1294
27.12  1282
27.1225  1278
27.125  1286
27.1275  1282
27.13  1282
27.1325  1282
27.135  1278
27.1375  1278
27.14  1286
27.1425  1286
27.145  1282
27.1475  1282
27.15  1278
27.1525  1286
27.155  1278
27.1575  1282
27.16  1282
27.1625  1274
27.165  1278
27.1675  1278
27.17  1271
27.1725  1286
27.175  1298
27.1775  1278
27.18  1286
27.1825  1294
27.185  1274
27.1875  1282
27.19  1278
27.1925  1282
27.195  1286
27.1975  1282
27.2  1274
27.2025  1278
27.205  1278
27.2075  1282
27.21  1282
27.2125  1278
27.215  1278
27.2175  1278
27.22  1278
27.2225  1282
27.225  1282
27.2275  1286
27.23  1286
27.2325  1286
27.235  1282
27.2375  1282
27.24  1271
27.2425  1282
27.245  1282
27.2475  1290
27.25  1278
27.2525  1274
27.255  1286
27.2575  1286
27.26  1286
27.2625  1282
27.265  1286
27.2675  1286
27.27  1290
27.2725  1286
27.275  1282
27.2775  1278
27.28  1282
27.2825  1278
27.285  1274
27.2875  1282
27.29  1282
27.2925  1282
27.295  1290
27.2975  1278
27.3  1286
27.3025  1282
27.305  1282
27.3075  1278
27.31  1286
27.3125  1282
27.315  1286
27.3175  1274
27.32  1278
27.3225  1282
27.325  1282
27.3275  1282
27.33  1298
27.3325  1286
27.335  1282
27.3375  1282
27.34  1286
27.3425  1282
27.345  1278
27.3475  1274
27.35  1274
27.3525  1282
27.355  1282
27.3575  1274
27.36  1278
27.3625  1274
27.365  1286
27.3675  1271
27.37  1282
27.3725  1271
27.375  1271
27.3775  1274
27.38  1278
27.3825  1286
27.385  1282
27.3875  1267
27.39  1294
27.3925  1282
27.395  1286
27.3975  1286
27.4  1271
27.4025  1286
27.405  1278
27.4075  1282
27.41  1282
27.4125  1267
27.415  1282
27.4175  1286
27.42  1278
27.4225  1286
27.425  1286
27.4275  1282
27.43  1274
27.4325  1271
27.435  1282
27.4375  1282
27.44  1286
27.4425  1271
27.445  1286
27.4475  1286
27.45  1278
27.4525  1290
27.455  1282
27.4575  1278
27.46  1294
27.4625  1278
27.465  1278
27.4675  1286
27.47  1278
27.4725  1286
27.475  1282
27.4775  1286
27.48  1286
27.4825  1286
27.485  1290
27.4875  1290
27.49  1278
27.4925  1278
27.495  1267
27.4975  1271
27.5  1282
27.5025  1274
27.505  1274
27.5075  1278
27.51  1282
27.5125  1282
27.515  1282
27.5175  1282
27.52  0
27.5225  0
27.525  0
27.5275  0
27.53  0
27.5325  0
27.535  0
27.5375  0
27.54  0
27.5425  0
27.545  0
27.5475  0
27.55  0
27.5525  0
27.555  0
27.5575  0
27.56  0
27.5625  0
27.565  0
27.5675  0
27.57  0
27.5725  0
27.575  0
27.5775  0
27.58  0
27.5825  0
27.585  0
27.5875  0
27.59  0
27.5925  0
27.595  0
27.5975  0
27.6  0
27.6025  0
27.605  0
27.6075  0
27.61  0
27.6125  0
27.615  0
27.6175  0
27.62  0
27.6225  0
27.625  0
27.6275  0
27.63  0
27.6325  0
27.635  0
27.6375  0
27.64  0
27.6425  0
27.645  0
27.6475  0
27.65  0
27.6525  0
27.655  0
27.6575  0
27.66  0
27.6625  0
27.665  0
27.6675  0
27.67  0
27.6725  0
27.675  0
27.6775  0
27.68  0
27.6825  0
27.685  0
27.6875  0
27.69  0
27.6925  0
27.695  0
27.6975  0
27.7  0
27.7025  0
27.705  0
27.7075  0
27.71  0
27.7125  0
27.715  0
27.7175  0
27.72  0
27.7225  0
27.725  0
27.7275  0
27.73  0
27.7325  0
27.735  0
27.7375  0
27.74  0
27.7425  0
27.745  0
27.7475  0
27.75  0
27.7525  0
27.755  0
27.7575  0
27.76  0
27.7625  0
27.765  0
27.7675  0
27.77  0
27.7725  0
27.775  0
27.7775  0
27.78  0
27.7825  0
27.785  0
27.7875  0
27.79  0
27.7925  0
27.795  0
27.7975  0
27.8  0
27.8025  0
27.805  0
27.8075  0
27.81  0
27.8125  0
27.815  0
27.8175  0
27.82  0
27.8225  0
27.825  0
27.8275  0
27.83  0
27.8325  0
27.835  0
27.8375  0
27.84  0
27.8425  0
27.845  0
27.8475  0
27.85  0
27.8525  0
27.855  0
27.8575  0
27.86  0
27.8625  0
27.865  0
27.8675  0
27.87  0
27.8725  0
27.875  0
27.8775  0
27.88  0
27.8825  0
27.885  0
27.8875  0
27.89  0
27.8925  0
27.895  0
27.8975  0
27.9  0
27.9025  0
27.905  0
27.9075  0
27.91  0
27.9125  0
27.915  0
27.9175  0
27.92  0
27.9225  0
27.925  0
27.9275  0
27.93  0
27.9325  0
27.935  0
27.9375  0
27.94  0
27.9425  0
27.945  0
27.9475  0
27.95  0
27.9525  0
27.955  0
27.9575  0
27.96  0
27.9625  0
27.965  0
27.9675  0
27.97  0
27.9725  0
27.975  0
27.9775  0
27.98  0
27.9825  0
27.985  0
27.9875  0
27.99  0
27.9925  0
27.995  0
27.9975  0
28  0
28.0025  0
28.005  0
28.0075  0
28.01  0
28.0125  0
28.015  0
28.0175  0
28.02  0
28.0225  0
28.025  0
28.0275  0
28.03  0
28.0325  0
28.035  0
28.0375  0
28.04  0
28.0425  0
28.045  0
28.0475  0
28.05  0
28.0525  0
28.055  0
28.0575  0
28.06  0
28.0625  0
28.065  0
28.0675  0
28.07  0
28.0725  0
28.075  0
28.0775  0
28.08  0
28.0825  0
28.085  0
28.0875  0
28.09  0
28.0925  0
28.095  0
28.0975  0
28.1  0
28.1025  0
28.105  0
28.1075  0
28.11  0
28.1125  0
28.115  0
28.1175  0
28.12  0
28.1225  0
28.125  0
28.1275  0
28.13  0
28.1325  0
28.135  0
28.1375  0
28.14  0
28.1425  0
28.145  0
28.1475  0
28.15  0
28.1525  0
28.155  0
28.1575  0
28.16  1282
28.1625  1278
28.165  1274
28.1675  1278
28.17  1286
28.1725  1278
28.175  1271
28.1775  1267
28.18  1286
28.1825  1282
28.185  1282
28.1875  1278
28.19  1286
28.1925  1274
28.195  1274
28.1975  1278
28.2  1294
28.2025  1286
28.205  1290
28.2075  1278
28.21  1282
28.2125  1274
28.215  1278
28.2175  1282
28.22  1282
28.2225  1274
28.225  1278
28.2275  1282
28.23  1282
28.2325  1278
28.235  1278
28.2375  1278
28.24  1274
28.2425  1274
28.245  1278
28.2475  1274
28.25  1282
28.2525  1286
28.255  1286
28.2575  1278
28.26  1274
28.2625  1282
28.265  1267
28.2675  1282
28.27  1290
28.2725  1294
28.275  1282
28.2775  1282
28.28  1286
28.2825  1286
28.285  1282
28.2875  1282
28.29  1274
28.2925  1286
28.295  1282
28.2975  1278
28.3  1278
28.3025  1286
28.305  1278
28.3075  1282
28.31  1286
28.3125  1278
28.315  1286
28.3175  1290
28.32  1278
28.3225  1286
28.325  1274
28.3275  1271
28.33  1271
28.3325  1282
28.335  1274
28.3375  1282
28.34  1271
28.3425  1274
28.345  1282
28.3475  1274
28.35  1278
28.3525  1278
28.355  1282
28.3575  1282
28.36  1282
28.3625  1286
28.365  1286
28.3675  1290
28.37  1282
28.3725  1286
28.375  1274
28.3775  1278
28.38  1286
28.3825  1263
28.385  1282
28.3875  1278
28.39  1278
28.3925  1278
28.395  1290
28.3975  1278
28.4  1278
28.4025  1282
28.405  1274
28.4075  1286
28.41  1274
28.4125  1278
28.415  1282
28.4175  1274
28.42  1282
28.4225  1278
28.425  1282
28.4275  1290
28.43  1282
28.4325  1282
28.435  1286
28.4375  1274
28.44  1282
28.4425  1278
28.445  1278
28.4475  1286
28.45  1286
28.4525  1286
28.455  1282
28.4575  1271
28.46  1274
28.4625  1282
28.465  1278
28.4675  1278
28.47  1274
28.4725  1278
28.475  1282
28.4775  1286
28.48  1274
28.4825  1290
28.485  1274
28.4875  1278
28.49  1274
28.4925  1282
28.495  1286
28.4975  1278
28.5  1278
28.5025  1274
28.505  1278
28.5075  1278
28.51  1278
28.5125  1271
28.515  1282
28.5175  1286
28.52  1282
28.5225  1286
28.525  1274
28.5275  1286
28.53  1282
28.5325  1282
28.535  1286
28.5375  1286
28.54  1278
28.5425  1278
28.545  1278
28.5475  1282
28.55  1290
28.5525  1282
28.555  1282
28.5575  1282
28.56  1274
28.5625  1282
28.565  1290
28.5675  1286
28.57  1286
28.5725  1286
28.575  1278
28.5775  1282
28.58  1274
28.5825  1286
28.585  1286
28.5875  1286
28.59  1286
28.5925  1282
28.595  1278
28.5975  1286
28.6  1278
28.6025  1286
28.605  1282
28.6075  1290
28.61  1278
28.6125  1286
28.615  1282
28.6175  1274
28.62  1278
28.6225  1282
28.625  1278
28.6275  1286
28.63  1274
28.6325  1290
28.635  1274
28.6375  1274
28.64  1282
28.6425  1278
28.645  1274
28.6475  1282
28.65  1278
28.6525  1278
28.655  1282
28.6575  1271
28.66  1271
28.6625  1290
28.665  1282
28.6675  1282
28.67  1282
28.6725  1274
28.675  1282
28.6775  1274
28.68  1286
28.6825  1274
28.685  1282
28.6875  1290
28.69  1278
28.6925  1278
28.695  1271
28.6975  1282
28.7  1290
28.7025  1282
28.705  1274
28.7075  1286
28.71  1282
28.7125  1278
28.715  1278
28.7175  1274
28.72  1274
28.7225  1274
28.725  1278
28.7275  1282
28.73  1290
28.7325  1282
28.735  1282
28.7375  1278
28.74  1282
28.7425  1290
28.745  1282
28.7475  1274
28.75  1286
28.7525  1294
28.755  1267
28.7575  1286
28.76  1282
28.7625  1282
28.765  1282
28.7675  1290
28.77  1274
28.7725  1282
28.775  1278
28.7775  1274
28.78  1286
28.7825  1278
28.785  1282
28.7875  1278
28.79  1282
28.7925  1274
28.795  1278
28.7975  1282
28.8  0
28.8025  0
28.805  0
28.8075  0
28.81  0
28.8125  0
28.815  0
28.8175  0
28.82  0
28.8225  0
28.825  0
28.8275  0
28.83  0
28.8325  0
28.835  0
28.8375  0
28.84  0
28.8425  0
28.845  0
28.8475  0
28.85  0
28.8525  0
28.855  0
28.8575  0
28.86  0
28.8625  0
28.865  0
28.8675  0
28.87  0
28.8725  0
28.875  0
28.8775  0
28.88  0
28.8825  0
28.885  0
28.8875  0
28.89  0
28.8925  0
28.895  0
28.8975  0
28.9  0
28.9025  0
28.905  0
28.9075  0
28.91  0
28.9125  0
28.915  0
28.9175  0
28.92  0
28.9225  0
28.925  0
28.9275  0
28.93  0
28.9325  0
28.935  0
28.9375  0
28.94  0
28.9425  0
28.945  0
28.9475  0
28.95  0
28.9525  0
28.955  0
28.9575  0
